PE IR                   SPECTRUM    ASCII       PEDS        1.60        
  -1
NS4780~1.ASC
12/04/20
13:17:06.00
12/04/20
13:17:06.00

Spectrum at -892,692,-5423 Micrometers
Aperture: 50,50
600.000000
1









SPECTRUM ONE,CPU32 MAIN 00.02.5000 17-APRIL-2002 13:00:00
MCT
MIR
CSI
68415
1.000000

4.000000
STRONG
RATIO
SPECTRUM (%R)
MAGNITUDE
AUTOIMAGE MICROSCOPE
DOUBLE

COMBINED


0


#HDR
-1
-1
#GR
CM-1
%T
0.00002384185791015625
0.0
4000.000000
-1.000000
3401
8
30.034530
1.996292
#DATA
4000.000000	15.518055 
3999.000000	15.539268 
3998.000000	15.560493 
3997.000000	15.581677 
3996.000000	15.610365 
3995.000000	15.647701 
3994.000000	15.678710 
3993.000000	15.681168 
3992.000000	15.650897 
3991.000000	15.611257 
3990.000000	15.592065 
3989.000000	15.603752 
3988.000000	15.635244 
3987.000000	15.669905 
3986.000000	15.695453 
3985.000000	15.704413 
3984.000000	15.697251 
3983.000000	15.685317 
3982.000000	15.683061 
3981.000000	15.694405 
3980.000000	15.709636 
3979.000000	15.717257 
3978.000000	15.715975 
3977.000000	15.712643 
3976.000000	15.713568 
3975.000000	15.722764 
3974.000000	15.742917 
3973.000000	15.770996 
3972.000000	15.794910 
3971.000000	15.803892 
3970.000000	15.797477 
3969.000000	15.783313 
3968.000000	15.771854 
3967.000000	15.772466 
3966.000000	15.789286 
3965.000000	15.815812 
3964.000000	15.839498 
3963.000000	15.854146 
3962.000000	15.865113 
3961.000000	15.876694 
3960.000000	15.879942 
3959.000000	15.867576 
3958.000000	15.847125 
3957.000000	15.832267 
3956.000000	15.832793 
3955.000000	15.852880 
3954.000000	15.894336 
3953.000000	15.948900 
3952.000000	16.000158 
3951.000000	16.032178 
3950.000000	16.037989 
3949.000000	16.031661 
3948.000000	16.041896 
3947.000000	16.077985 
3946.000000	16.111624 
3945.000000	16.112608 
3944.000000	16.084500 
3943.000000	16.054630 
3942.000000	16.038801 
3941.000000	16.015248 
3940.000000	15.961765 
3939.000000	15.919282 
3938.000000	15.954287 
3937.000000	16.067018 
3936.000000	16.186741 
3935.000000	16.247687 
3934.000000	16.249095 
3933.000000	16.219061 
3932.000000	16.178178 
3931.000000	16.149829 
3930.000000	16.159682 
3929.000000	16.214133 
3928.000000	16.279112 
3927.000000	16.306453 
3926.000000	16.293669 
3925.000000	16.285776 
3924.000000	16.301364 
3923.000000	16.298686 
3922.000000	16.259266 
3921.000000	16.237687 
3920.000000	16.256707 
3919.000000	16.247366 
3918.000000	16.160473 
3917.000000	16.055990 
3916.000000	16.006730 
3915.000000	15.988790 
3914.000000	15.947173 
3913.000000	15.902623 
3912.000000	15.904395 
3911.000000	15.965638 
3910.000000	16.080546 
3909.000000	16.248699 
3908.000000	16.469794 
3907.000000	16.701515 
3906.000000	16.880484 
3905.000000	16.965920 
3904.000000	16.980231 
3903.000000	16.934623 
3902.000000	16.770961 
3901.000000	16.492921 
3900.000000	16.254460 
3899.000000	16.183969 
3898.000000	16.229904 
3897.000000	16.273516 
3896.000000	16.303447 
3895.000000	16.384285 
3894.000000	16.478275 
3893.000000	16.456259 
3892.000000	16.332307 
3891.000000	16.334994 
3890.000000	16.518298 
3889.000000	16.602944 
3888.000000	16.470619 
3887.000000	16.318892 
3886.000000	16.341599 
3885.000000	16.554459 
3884.000000	16.737475 
3883.000000	16.665114 
3882.000000	16.449303 
3881.000000	16.324622 
3880.000000	16.387926 
3879.000000	16.564293 
3878.000000	16.636724 
3877.000000	16.559169 
3876.000000	16.539414 
3875.000000	16.722354 
3874.000000	17.040257 
3873.000000	17.223358 
3872.000000	17.049216 
3871.000000	16.682552 
3870.000000	16.536881 
3869.000000	16.764599 
3868.000000	16.985574 
3867.000000	16.894057 
3866.000000	16.759220 
3865.000000	16.825295 
3864.000000	16.910836 
3863.000000	16.829032 
3862.000000	16.657600 
3861.000000	16.583090 
3860.000000	16.678863 
3859.000000	16.896115 
3858.000000	17.186115 
3857.000000	17.503768 
3856.000000	17.740401 
3855.000000	17.644122 
3854.000000	17.110307 
3853.000000	16.833067 
3852.000000	17.155565 
3851.000000	17.245910 
3850.000000	16.839073 
3849.000000	16.501482 
3848.000000	16.434653 
3847.000000	16.516713 
3846.000000	16.634900 
3845.000000	16.785725 
3844.000000	16.987160 
3843.000000	17.245342 
3842.000000	17.492922 
3841.000000	17.618046 
3840.000000	17.576809 
3839.000000	17.412572 
3838.000000	17.253026 
3837.000000	17.209738 
3836.000000	17.229155 
3835.000000	17.166454 
3834.000000	16.995017 
3833.000000	16.813321 
3832.000000	16.732320 
3831.000000	16.766779 
3830.000000	16.814284 
3829.000000	16.778528 
3828.000000	16.701033 
3827.000000	16.739121 
3826.000000	16.984833 
3825.000000	17.309224 
3824.000000	17.499755 
3823.000000	17.508225 
3822.000000	17.406289 
3821.000000	17.389089 
3820.000000	17.567049 
3819.000000	17.515335 
3818.000000	17.050228 
3817.000000	16.610485 
3816.000000	16.529533 
3815.000000	16.739918 
3814.000000	16.834837 
3813.000000	16.644018 
3812.000000	16.500731 
3811.000000	16.631000 
3810.000000	16.858749 
3809.000000	16.937946 
3808.000000	16.879569 
3807.000000	16.957690 
3806.000000	17.286349 
3805.000000	17.531743 
3804.000000	17.435084 
3803.000000	17.204723 
3802.000000	17.090347 
3801.000000	17.238527 
3800.000000	17.489336 
3799.000000	17.394649 
3798.000000	17.023142 
3797.000000	16.778544 
3796.000000	16.743366 
3795.000000	16.750642 
3794.000000	16.649529 
3793.000000	16.501303 
3792.000000	16.443756 
3791.000000	16.485735 
3790.000000	16.551429 
3789.000000	16.614336 
3788.000000	16.680885 
3787.000000	16.728114 
3786.000000	16.733069 
3785.000000	16.746681 
3784.000000	16.830907 
3783.000000	16.945983 
3782.000000	17.002208 
3781.000000	16.982822 
3780.000000	16.921941 
3779.000000	16.861834 
3778.000000	16.800587 
3777.000000	16.687344 
3776.000000	16.571569 
3775.000000	16.592813 
3774.000000	16.772643 
3773.000000	16.961160 
3772.000000	17.028066 
3771.000000	17.004667 
3770.000000	17.007592 
3769.000000	17.051825 
3768.000000	17.007275 
3767.000000	16.829279 
3766.000000	16.688566 
3765.000000	16.735208 
3764.000000	16.897581 
3763.000000	17.001509 
3762.000000	17.041471 
3761.000000	17.138547 
3760.000000	17.243405 
3759.000000	17.219961 
3758.000000	17.136018 
3757.000000	17.157423 
3756.000000	17.312435 
3755.000000	17.535045 
3754.000000	17.825492 
3753.000000	18.141319 
3752.000000	18.204148 
3751.000000	17.858238 
3750.000000	17.543323 
3749.000000	17.594572 
3748.000000	17.684567 
3747.000000	17.457888 
3746.000000	17.011043 
3745.000000	16.645082 
3744.000000	16.754635 
3743.000000	17.224552 
3742.000000	17.327887 
3741.000000	17.109402 
3740.000000	17.184606 
3739.000000	17.581328 
3738.000000	17.956894 
3737.000000	18.066769 
3736.000000	17.933232 
3735.000000	17.654505 
3734.000000	17.293579 
3733.000000	16.964399 
3732.000000	16.851929 
3731.000000	16.957416 
3730.000000	17.048944 
3729.000000	17.004837 
3728.000000	16.949998 
3727.000000	16.994767 
3726.000000	17.064362 
3725.000000	17.018381 
3724.000000	16.849862 
3723.000000	16.691962 
3722.000000	16.608081 
3721.000000	16.540278 
3720.000000	16.416538 
3719.000000	16.263538 
3718.000000	16.194819 
3717.000000	16.268861 
3716.000000	16.432358 
3715.000000	16.625973 
3714.000000	16.858903 
3713.000000	17.068254 
3712.000000	17.087733 
3711.000000	16.914455 
3710.000000	16.701662 
3709.000000	16.490338 
3708.000000	16.286479 
3707.000000	16.150791 
3706.000000	16.106077 
3705.000000	16.111495 
3704.000000	16.104866 
3703.000000	16.044632 
3702.000000	15.942086 
3701.000000	15.866289 
3700.000000	15.810885 
3699.000000	15.693319 
3698.000000	15.543090 
3697.000000	15.485393 
3696.000000	15.550324 
3695.000000	15.656949 
3694.000000	15.766325 
3693.000000	15.921652 
3692.000000	16.083654 
3691.000000	16.049480 
3690.000000	15.703590 
3689.000000	15.290254 
3688.000000	15.103561 
3687.000000	15.013579 
3686.000000	14.762091 
3685.000000	14.418735 
3684.000000	14.202400 
3683.000000	14.153842 
3682.000000	14.172626 
3681.000000	14.216570 
3680.000000	14.349805 
3679.000000	14.549923 
3678.000000	14.637511 
3677.000000	14.486806 
3676.000000	14.229175 
3675.000000	14.250854 
3674.000000	14.446841 
3673.000000	14.274806 
3672.000000	13.825520 
3671.000000	13.526889 
3670.000000	13.423968 
3669.000000	13.426061 
3668.000000	13.355456 
3667.000000	13.112759 
3666.000000	12.849603 
3665.000000	12.697191 
3664.000000	12.622742 
3663.000000	12.561123 
3662.000000	12.512281 
3661.000000	12.497961 
3660.000000	12.489799 
3659.000000	12.415587 
3658.000000	12.251201 
3657.000000	12.078508 
3656.000000	12.031377 
3655.000000	12.100420 
3654.000000	12.108378 
3653.000000	12.044576 
3652.000000	12.083072 
3651.000000	12.219433 
3650.000000	12.228375 
3649.000000	12.101462 
3648.000000	12.031010 
3647.000000	11.976230 
3646.000000	11.784233 
3645.000000	11.459987 
3644.000000	11.130365 
3643.000000	10.903318 
3642.000000	10.784082 
3641.000000	10.698989 
3640.000000	10.594492 
3639.000000	10.492631 
3638.000000	10.438913 
3637.000000	10.411966 
3636.000000	10.360051 
3635.000000	10.298625 
3634.000000	10.279602 
3633.000000	10.275433 
3632.000000	10.194882 
3631.000000	10.048121 
3630.000000	9.951196  
3629.000000	10.035189 
3628.000000	10.323938 
3627.000000	10.487687 
3626.000000	10.278125 
3625.000000	9.937430  
3624.000000	9.714771  
3623.000000	9.600291  
3622.000000	9.512939  
3621.000000	9.446639  
3620.000000	9.457135  
3619.000000	9.572329  
3618.000000	9.724831  
3617.000000	9.766583  
3616.000000	9.645105  
3615.000000	9.466703  
3614.000000	9.345642  
3613.000000	9.297132  
3612.000000	9.252300  
3611.000000	9.151576  
3610.000000	9.033738  
3609.000000	8.988031  
3608.000000	9.033700  
3607.000000	9.090439  
3606.000000	9.060524  
3605.000000	8.939597  
3604.000000	8.807579  
3603.000000	8.727823  
3602.000000	8.709031  
3601.000000	8.732187  
3600.000000	8.762003  
3599.000000	8.752184  
3598.000000	8.690789  
3597.000000	8.614427  
3596.000000	8.565212  
3595.000000	8.556452  
3594.000000	8.566850  
3593.000000	8.553678  
3592.000000	8.484148  
3591.000000	8.370752  
3590.000000	8.264371  
3589.000000	8.213457  
3588.000000	8.241345  
3587.000000	8.342873  
3586.000000	8.436936  
3585.000000	8.417397  
3584.000000	8.294094  
3583.000000	8.159278  
3582.000000	8.064210  
3581.000000	8.002863  
3580.000000	7.955758  
3579.000000	7.918325  
3578.000000	7.895975  
3577.000000	7.889442  
3576.000000	7.886956  
3575.000000	7.876911  
3574.000000	7.858388  
3573.000000	7.835254  
3572.000000	7.806167  
3571.000000	7.765770  
3570.000000	7.723228  
3569.000000	7.712550  
3568.000000	7.776068  
3567.000000	7.926302  
3566.000000	8.098359  
3565.000000	8.167741  
3564.000000	8.088758  
3563.000000	7.937535  
3562.000000	7.799841  
3561.000000	7.704843  
3560.000000	7.643990  
3559.000000	7.600883  
3558.000000	7.562169  
3557.000000	7.520672  
3556.000000	7.476768  
3555.000000	7.439244  
3554.000000	7.426294  
3553.000000	7.452408  
3552.000000	7.506203  
3551.000000	7.544459  
3550.000000	7.529783  
3549.000000	7.475074  
3548.000000	7.429924  
3547.000000	7.426364  
3546.000000	7.457278  
3545.000000	7.494133  
3544.000000	7.510413  
3543.000000	7.496077  
3542.000000	7.457984  
3541.000000	7.410231  
3540.000000	7.365408  
3539.000000	7.331922  
3538.000000	7.316955  
3537.000000	7.322461  
3536.000000	7.338236  
3535.000000	7.342368  
3534.000000	7.319494  
3533.000000	7.277703  
3532.000000	7.240205  
3531.000000	7.223853  
3530.000000	7.232090  
3529.000000	7.264201  
3528.000000	7.313732  
3527.000000	7.358870  
3526.000000	7.371699  
3525.000000	7.349285  
3524.000000	7.319444  
3523.000000	7.307526  
3522.000000	7.307224  
3521.000000	7.294620  
3520.000000	7.264935  
3519.000000	7.238387  
3518.000000	7.230824  
3517.000000	7.232552  
3516.000000	7.224063  
3515.000000	7.203345  
3514.000000	7.186043  
3513.000000	7.184156  
3512.000000	7.196125  
3511.000000	7.214573  
3510.000000	7.233175  
3509.000000	7.242273  
3508.000000	7.231619  
3507.000000	7.188964  
3506.000000	7.144047  
3505.000000	7.103962  
3504.000000	7.092077  
3503.000000	7.084567  
3502.000000	7.148757  
3501.000000	7.310059  
3500.000000	7.246590  
3499.000000	7.187923  
3498.000000	7.122669  
3497.000000	7.100850  
3496.000000	7.098959  
3495.000000	7.101054  
3494.000000	7.092001  
3493.000000	7.081679  
3492.000000	7.084024  
3491.000000	7.101640  
3490.000000	7.123898  
3489.000000	7.138766  
3488.000000	7.142343  
3487.000000	7.136549  
3486.000000	7.122407  
3485.000000	7.100513  
3484.000000	7.076744  
3483.000000	7.063022  
3482.000000	7.070464  
3481.000000	7.099449  
3480.000000	7.134570  
3479.000000	7.154117  
3478.000000	7.146516  
3477.000000	7.117738  
3476.000000	7.084563  
3475.000000	7.061984  
3474.000000	7.054756  
3473.000000	7.057772  
3472.000000	7.063249  
3471.000000	7.066933  
3470.000000	7.068725  
3469.000000	7.071438  
3468.000000	7.078951  
3467.000000	7.090365  
3466.000000	7.094931  
3465.000000	7.079106  
3464.000000	7.043585  
3463.000000	7.008540  
3462.000000	6.996633  
3461.000000	7.011384  
3460.000000	7.035853  
3459.000000	7.052094  
3458.000000	7.055617  
3457.000000	7.050368  
3456.000000	7.038588  
3455.000000	7.020177  
3454.000000	7.000677  
3453.000000	6.993335  
3452.000000	7.006480  
3451.000000	7.031326  
3450.000000	7.049324  
3449.000000	7.053119  
3448.000000	7.052533  
3447.000000	7.057428  
3446.000000	7.060642  
3445.000000	7.048141  
3444.000000	7.023164  
3443.000000	7.006343  
3442.000000	7.011588  
3441.000000	7.032680  
3440.000000	7.053865  
3439.000000	7.066096  
3438.000000	7.070177  
3437.000000	7.069242  
3436.000000	7.064268  
3435.000000	7.054158  
3434.000000	7.039212  
3433.000000	7.025904  
3432.000000	7.024244  
3431.000000	7.036540  
3430.000000	7.050831  
3429.000000	7.051740  
3428.000000	7.036408  
3427.000000	7.016310  
3426.000000	7.002844  
3425.000000	6.995280  
3424.000000	6.985771  
3423.000000	6.973737  
3422.000000	6.969972  
3421.000000	6.983536  
3420.000000	7.007247  
3419.000000	7.021472  
3418.000000	7.013768  
3417.000000	6.990572  
3416.000000	6.968294  
3415.000000	6.957520  
3414.000000	6.957726  
3413.000000	6.963140  
3412.000000	6.968901  
3411.000000	6.972283  
3410.000000	6.972062  
3409.000000	6.968012  
3408.000000	6.959521  
3407.000000	6.945724  
3406.000000	6.928715  
3405.000000	6.914771  
3404.000000	6.910014  
3403.000000	6.914242  
3402.000000	6.919977  
3401.000000	6.918202  
3400.000000	6.906862  
3399.000000	6.895304  
3398.000000	6.897975  
3397.000000	6.920306  
3396.000000	6.951397  
3395.000000	6.973844  
3394.000000	6.979412  
3393.000000	6.971775  
3392.000000	6.955504  
3391.000000	6.928696  
3390.000000	6.890025  
3389.000000	6.849143  
3388.000000	6.824103  
3387.000000	6.827558  
3386.000000	6.855738  
3385.000000	6.889346  
3384.000000	6.905728  
3383.000000	6.893622  
3382.000000	6.860584  
3381.000000	6.826743  
3380.000000	6.810057  
3379.000000	6.815519  
3378.000000	6.834266  
3377.000000	6.850956  
3376.000000	6.853761  
3375.000000	6.842144  
3374.000000	6.826870  
3373.000000	6.821354  
3372.000000	6.831405  
3371.000000	6.852977  
3370.000000	6.879031  
3369.000000	6.906070  
3368.000000	6.933208  
3367.000000	6.957005  
3366.000000	6.970709  
3365.000000	6.969815  
3364.000000	6.956925  
3363.000000	6.939933  
3362.000000	6.926338  
3361.000000	6.920250  
3360.000000	6.923595  
3359.000000	6.937356  
3358.000000	6.959603  
3357.000000	6.982297  
3356.000000	6.992518  
3355.000000	6.980727  
3354.000000	6.949689  
3353.000000	6.914270  
3352.000000	6.890985  
3351.000000	6.886730  
3350.000000	6.896881  
3349.000000	6.912246  
3348.000000	6.926079  
3347.000000	6.937036  
3346.000000	6.948841  
3345.000000	6.966186  
3344.000000	6.987835  
3343.000000	7.002815  
3342.000000	6.998071  
3341.000000	6.973813  
3340.000000	6.949056  
3339.000000	6.947107  
3338.000000	6.973575  
3337.000000	7.010922  
3336.000000	7.034814  
3335.000000	7.034230  
3334.000000	7.016541  
3333.000000	6.997472  
3332.000000	6.989469  
3331.000000	6.997078  
3330.000000	7.017682  
3329.000000	7.044323  
3328.000000	7.069088  
3327.000000	7.085675  
3326.000000	7.091351  
3325.000000	7.088193  
3324.000000	7.081866  
3323.000000	7.077147  
3322.000000	7.073264  
3321.000000	7.065347  
3320.000000	7.052500  
3319.000000	7.042785  
3318.000000	7.046496  
3317.000000	7.064114  
3316.000000	7.084016  
3315.000000	7.093684  
3314.000000	7.091054  
3313.000000	7.084223  
3312.000000	7.082729  
3311.000000	7.090014  
3310.000000	7.102379  
3309.000000	7.113323  
3308.000000	7.119044  
3307.000000	7.122302  
3306.000000	7.130846  
3305.000000	7.150115  
3304.000000	7.177640  
3303.000000	7.204578  
3302.000000	7.221680  
3301.000000	7.224357  
3300.000000	7.214708  
3299.000000	7.200440  
3298.000000	7.190552  
3297.000000	7.189258  
3296.000000	7.193808  
3295.000000	7.199616  
3294.000000	7.205719  
3293.000000	7.212884  
3292.000000	7.218524  
3291.000000	7.218008  
3290.000000	7.211127  
3289.000000	7.203309  
3288.000000	7.198945  
3287.000000	7.196382  
3286.000000	7.191929  
3285.000000	7.186832  
3284.000000	7.186682  
3283.000000	7.194660  
3282.000000	7.208051  
3281.000000	7.222017  
3280.000000	7.235632  
3279.000000	7.252257  
3278.000000	7.273330  
3277.000000	7.293843  
3276.000000	7.306858  
3275.000000	7.312301  
3274.000000	7.317543  
3273.000000	7.327376  
3272.000000	7.337197  
3271.000000	7.339566  
3270.000000	7.334684  
3269.000000	7.330117  
3268.000000	7.331465  
3267.000000	7.338041  
3266.000000	7.347473  
3265.000000	7.358939  
3264.000000	7.370589  
3263.000000	7.379401  
3262.000000	7.384992  
3261.000000	7.389540  
3260.000000	7.392997  
3259.000000	7.392272  
3258.000000	7.387215  
3257.000000	7.384053  
3256.000000	7.390064  
3255.000000	7.407242  
3254.000000	7.434188  
3253.000000	7.469610  
3252.000000	7.508205  
3251.000000	7.535606  
3250.000000	7.535487  
3249.000000	7.506047  
3248.000000	7.466678  
3247.000000	7.444112  
3246.000000	7.450116  
3245.000000	7.472744  
3244.000000	7.490153  
3243.000000	7.493253  
3242.000000	7.493277  
3241.000000	7.507225  
3240.000000	7.538377  
3239.000000	7.573034  
3238.000000	7.595602  
3237.000000	7.603784  
3236.000000	7.607022  
3235.000000	7.612548  
3234.000000	7.618085  
3233.000000	7.618552  
3232.000000	7.615859  
3231.000000	7.619479  
3230.000000	7.638024  
3229.000000	7.671488  
3228.000000	7.710331  
3227.000000	7.740670  
3226.000000	7.752837  
3225.000000	7.748255  
3224.000000	7.738166  
3223.000000	7.734369  
3222.000000	7.740427  
3221.000000	7.751529  
3220.000000	7.761356  
3219.000000	7.767259  
3218.000000	7.769871  
3217.000000	7.772316  
3216.000000	7.780866  
3215.000000	7.800557  
3214.000000	7.826691  
3213.000000	7.844838  
3212.000000	7.844387  
3211.000000	7.830875  
3210.000000	7.821385  
3209.000000	7.828220  
3208.000000	7.849223  
3207.000000	7.872580  
3206.000000	7.887438  
3205.000000	7.890221  
3204.000000	7.885458  
3203.000000	7.883417  
3202.000000	7.893751  
3201.000000	7.918034  
3200.000000	7.948503  
3199.000000	7.974159  
3198.000000	7.987672  
3197.000000	7.987122  
3196.000000	7.974608  
3195.000000	7.955972  
3194.000000	7.940904  
3193.000000	7.939188  
3192.000000	7.953674  
3191.000000	7.976526  
3190.000000	7.994067  
3189.000000	7.998046  
3188.000000	7.993991  
3187.000000	7.997786  
3186.000000	8.021283  
3185.000000	8.060503  
3184.000000	8.099224  
3183.000000	8.124039  
3182.000000	8.134393  
3181.000000	8.138485  
3180.000000	8.142360  
3179.000000	8.144665  
3178.000000	8.141440  
3177.000000	8.133820  
3176.000000	8.128963  
3175.000000	8.133414  
3174.000000	8.147261  
3173.000000	8.165369  
3172.000000	8.183232  
3171.000000	8.199664  
3170.000000	8.213722  
3169.000000	8.222499  
3168.000000	8.224494  
3167.000000	8.223165  
3166.000000	8.223536  
3165.000000	8.226167  
3164.000000	8.227780  
3163.000000	8.227905  
3162.000000	8.231907  
3161.000000	8.245758  
3160.000000	8.268749  
3159.000000	8.291695  
3158.000000	8.302059  
3157.000000	8.292296  
3156.000000	8.266821  
3155.000000	8.243243  
3154.000000	8.244245  
3153.000000	8.281878  
3152.000000	8.345290  
3151.000000	8.404878  
3150.000000	8.432953  
3149.000000	8.424764  
3148.000000	8.401097  
3147.000000	8.389869  
3146.000000	8.404292  
3145.000000	8.436497  
3144.000000	8.468357  
3143.000000	8.486229  
3142.000000	8.487275  
3141.000000	8.476496  
3140.000000	8.461859  
3139.000000	8.451582  
3138.000000	8.451433  
3137.000000	8.462321  
3136.000000	8.481678  
3135.000000	8.506742  
3134.000000	8.533967  
3133.000000	8.556227  
3132.000000	8.565811  
3131.000000	8.563128  
3130.000000	8.559703  
3129.000000	8.568965  
3128.000000	8.593608  
3127.000000	8.622950  
3126.000000	8.642745  
3125.000000	8.646794  
3124.000000	8.638549  
3123.000000	8.624826  
3122.000000	8.612111  
3121.000000	8.606510  
3120.000000	8.611904  
3119.000000	8.627092  
3118.000000	8.646473  
3117.000000	8.664212  
3116.000000	8.676954  
3115.000000	8.683151  
3114.000000	8.683327  
3113.000000	8.682004  
3112.000000	8.685178  
3111.000000	8.692892  
3110.000000	8.697962  
3109.000000	8.696038  
3108.000000	8.693315  
3107.000000	8.698570  
3106.000000	8.710045  
3105.000000	8.716939  
3104.000000	8.712372  
3103.000000	8.699435  
3102.000000	8.685212  
3101.000000	8.673449  
3100.000000	8.663880  
3099.000000	8.655714  
3098.000000	8.650020  
3097.000000	8.649995  
3096.000000	8.659656  
3095.000000	8.679681  
3094.000000	8.702861  
3093.000000	8.716582  
3092.000000	8.713454  
3091.000000	8.698781  
3090.000000	8.686414  
3089.000000	8.688017  
3088.000000	8.706283  
3087.000000	8.735689  
3086.000000	8.766048  
3085.000000	8.786452  
3084.000000	8.790480  
3083.000000	8.780274  
3082.000000	8.764218  
3081.000000	8.749539  
3080.000000	8.739134  
3079.000000	8.735963  
3078.000000	8.745364  
3077.000000	8.768484  
3076.000000	8.796419  
3075.000000	8.815968  
3074.000000	8.821987  
3073.000000	8.820787  
3072.000000	8.819642  
3071.000000	8.816921  
3070.000000	8.806340  
3069.000000	8.789215  
3068.000000	8.777852  
3067.000000	8.784683  
3066.000000	8.808660  
3065.000000	8.833734  
3064.000000	8.842303  
3063.000000	8.831392  
3062.000000	8.814980  
3061.000000	8.808839  
3060.000000	8.814634  
3059.000000	8.821937  
3058.000000	8.824637  
3057.000000	8.829342  
3056.000000	8.844961  
3055.000000	8.869170  
3054.000000	8.890783  
3053.000000	8.902929  
3052.000000	8.907327  
3051.000000	8.906681  
3050.000000	8.899841  
3049.000000	8.886537  
3048.000000	8.872013  
3047.000000	8.862720  
3046.000000	8.859315  
3045.000000	8.857925  
3044.000000	8.857542  
3043.000000	8.861833  
3042.000000	8.871502  
3041.000000	8.878570  
3040.000000	8.873338  
3039.000000	8.856436  
3038.000000	8.839499  
3037.000000	8.832185  
3036.000000	8.832496  
3035.000000	8.833362  
3034.000000	8.834765  
3033.000000	8.842764  
3032.000000	8.857286  
3031.000000	8.867705  
3030.000000	8.863516  
3029.000000	8.844966  
3028.000000	8.819711  
3027.000000	8.792457  
3026.000000	8.762496  
3025.000000	8.729781  
3024.000000	8.697617  
3023.000000	8.668725  
3022.000000	8.643951  
3021.000000	8.626170  
3020.000000	8.619465  
3019.000000	8.620501  
3018.000000	8.615275  
3017.000000	8.590528  
3016.000000	8.547537  
3015.000000	8.499677  
3014.000000	8.456317  
3013.000000	8.414097  
3012.000000	8.365417  
3011.000000	8.310659  
3010.000000	8.258153  
3009.000000	8.214859  
3008.000000	8.180743  
3007.000000	8.149665  
3006.000000	8.111645  
3005.000000	8.056893  
3004.000000	7.984449  
3003.000000	7.908185  
3002.000000	7.848981  
3001.000000	7.817240  
3000.000000	7.804663  
2999.000000	7.795042  
2998.000000	7.780150  
2997.000000	7.762200  
2996.000000	7.744105  
2995.000000	7.722692  
2994.000000	7.692637  
2993.000000	7.653699  
2992.000000	7.611778  
2991.000000	7.573739  
2990.000000	7.541795  
2989.000000	7.512925  
2988.000000	7.484017  
2987.000000	7.457273  
2986.000000	7.438757  
2985.000000	7.430799  
2984.000000	7.428052  
2983.000000	7.422878  
2982.000000	7.412852  
2981.000000	7.401035  
2980.000000	7.389868  
2979.000000	7.376946  
2978.000000	7.357367  
2977.000000	7.329341  
2976.000000	7.297347  
2975.000000	7.269496  
2974.000000	7.249913  
2973.000000	7.233234  
2972.000000	7.208951  
2971.000000	7.172800  
2970.000000	7.131920  
2969.000000	7.096845  
2968.000000	7.070781  
2967.000000	7.049263  
2966.000000	7.028099  
2965.000000	7.007601  
2964.000000	6.989070  
2963.000000	6.970757  
2962.000000	6.949027  
2961.000000	6.922755  
2960.000000	6.896292  
2959.000000	6.878025  
2958.000000	6.874133  
2957.000000	6.881783  
2956.000000	6.889788  
2955.000000	6.888489  
2954.000000	6.879199  
2953.000000	6.872589  
2952.000000	6.877654  
2951.000000	6.892815  
2950.000000	6.906782  
2949.000000	6.907651  
2948.000000	6.893478  
2947.000000	6.876284  
2946.000000	6.873620  
2945.000000	6.892777  
2944.000000	6.923637  
2943.000000	6.948953  
2942.000000	6.960675  
2941.000000	6.963427  
2940.000000	6.964437  
2939.000000	6.966023  
2938.000000	6.968417  
2937.000000	6.974117  
2936.000000	6.985561  
2935.000000	7.001226  
2934.000000	7.016912  
2933.000000	7.029045  
2932.000000	7.034748  
2931.000000	7.031447  
2930.000000	7.020062  
2929.000000	7.007613  
2928.000000	7.002876  
2927.000000	7.008181  
2926.000000	7.017197  
2925.000000	7.022328  
2924.000000	7.024022  
2923.000000	7.031507  
2922.000000	7.053417  
2921.000000	7.087796  
2920.000000	7.122790  
2919.000000	7.147934  
2918.000000	7.163016  
2917.000000	7.174288  
2916.000000	7.184315  
2915.000000	7.189976  
2914.000000	7.190829  
2913.000000	7.194768  
2912.000000	7.211434  
2911.000000	7.240871  
2910.000000	7.271896  
2909.000000	7.292552  
2908.000000	7.301632  
2907.000000	7.309628  
2906.000000	7.328048  
2905.000000	7.358437  
2904.000000	7.392754  
2903.000000	7.423621  
2902.000000	7.451449  
2901.000000	7.478358  
2900.000000	7.498713  
2899.000000	7.500777  
2898.000000	7.481112  
2897.000000	7.453570  
2896.000000	7.437911  
2895.000000	7.440862  
2894.000000	7.451831  
2893.000000	7.458132  
2892.000000	7.460148  
2891.000000	7.468746  
2890.000000	7.490444  
2889.000000	7.519899  
2888.000000	7.547374  
2887.000000	7.569209  
2886.000000	7.587693  
2885.000000	7.602885  
2884.000000	7.609430  
2883.000000	7.603024  
2882.000000	7.587176  
2881.000000	7.570820  
2880.000000	7.559924  
2879.000000	7.553244  
2878.000000	7.546107  
2877.000000	7.537250  
2876.000000	7.532158  
2875.000000	7.540086  
2874.000000	7.566476  
2873.000000	7.606763  
2872.000000	7.647811  
2871.000000	7.676623  
2870.000000	7.688704  
2869.000000	7.689590  
2868.000000	7.691103  
2867.000000	7.706382  
2866.000000	7.744028  
2865.000000	7.802196  
2864.000000	7.868029  
2863.000000	7.925506  
2862.000000	7.964909  
2861.000000	7.985101  
2860.000000	7.989538  
2859.000000	7.983990  
2858.000000	7.977214  
2857.000000	7.978829  
2856.000000	7.993789  
2855.000000	8.020039  
2854.000000	8.052767  
2853.000000	8.089541  
2852.000000	8.130060  
2851.000000	8.172000  
2850.000000	8.209381  
2849.000000	8.236543  
2848.000000	8.253916  
2847.000000	8.268944  
2846.000000	8.290562  
2845.000000	8.323193  
2844.000000	8.366779  
2843.000000	8.420691  
2842.000000	8.483896  
2841.000000	8.550802  
2840.000000	8.611052  
2839.000000	8.656913  
2838.000000	8.690119  
2837.000000	8.719882  
2836.000000	8.755312  
2835.000000	8.800483  
2834.000000	8.853480  
2833.000000	8.907537  
2832.000000	8.955566  
2831.000000	8.997164  
2830.000000	9.039268  
2829.000000	9.085840  
2828.000000	9.128719  
2827.000000	9.154078  
2826.000000	9.158454  
2825.000000	9.153517  
2824.000000	9.153797  
2823.000000	9.164434  
2822.000000	9.182961  
2821.000000	9.208143  
2820.000000	9.241678  
2819.000000	9.282418  
2818.000000	9.323955  
2817.000000	9.359500  
2816.000000	9.386862  
2815.000000	9.407012  
2814.000000	9.419640  
2813.000000	9.423035  
2812.000000	9.418868  
2811.000000	9.414619  
2810.000000	9.418623  
2809.000000	9.433041  
2808.000000	9.453420  
2807.000000	9.474197  
2806.000000	9.491442  
2805.000000	9.500679  
2804.000000	9.497969  
2803.000000	9.487192  
2802.000000	9.482731  
2801.000000	9.499152  
2800.000000	9.537740  
2799.000000	9.585864  
2798.000000	9.628748  
2797.000000	9.658990  
2796.000000	9.675921  
2795.000000	9.681211  
2794.000000	9.677742  
2793.000000	9.670118  
2792.000000	9.662974  
2791.000000	9.658139  
2790.000000	9.654191  
2789.000000	9.649119  
2788.000000	9.643638  
2787.000000	9.642071  
2786.000000	9.649619  
2785.000000	9.668610  
2784.000000	9.697452  
2783.000000	9.732208  
2782.000000	9.767225  
2781.000000	9.794687  
2780.000000	9.807495  
2779.000000	9.805353  
2778.000000	9.796841  
2777.000000	9.793140  
2776.000000	9.799904  
2775.000000	9.815619  
2774.000000	9.835426  
2773.000000	9.854466  
2772.000000	9.869098  
2771.000000	9.877914  
2770.000000	9.882035  
2769.000000	9.883275  
2768.000000	9.882259  
2767.000000	9.879024  
2766.000000	9.874674  
2765.000000	9.871445  
2764.000000	9.871487  
2763.000000	9.875775  
2762.000000	9.883686  
2761.000000	9.894343  
2760.000000	9.909329  
2759.000000	9.932189  
2758.000000	9.962384  
2757.000000	9.991778  
2756.000000	10.011966 
2755.000000	10.024378 
2754.000000	10.037460 
2753.000000	10.053475 
2752.000000	10.064919 
2751.000000	10.066106 
2750.000000	10.060899 
2749.000000	10.054565 
2748.000000	10.044913 
2747.000000	10.028657 
2746.000000	10.012351 
2745.000000	10.008605 
2744.000000	10.021403 
2743.000000	10.040459 
2742.000000	10.051268 
2741.000000	10.048954 
2740.000000	10.042829 
2739.000000	10.047972 
2738.000000	10.070079 
2737.000000	10.098508 
2736.000000	10.118098 
2735.000000	10.127601 
2734.000000	10.139570 
2733.000000	10.160363 
2732.000000	10.179284 
2731.000000	10.183418 
2730.000000	10.175557 
2729.000000	10.169332 
2728.000000	10.172396 
2727.000000	10.183027 
2726.000000	10.198589 
2725.000000	10.217377 
2724.000000	10.234446 
2723.000000	10.245237 
2722.000000	10.252772 
2721.000000	10.263271 
2720.000000	10.275285 
2719.000000	10.280890 
2718.000000	10.277530 
2717.000000	10.271420 
2716.000000	10.269204 
2715.000000	10.272886 
2714.000000	10.282663 
2713.000000	10.297758 
2712.000000	10.313847 
2711.000000	10.325702 
2710.000000	10.332998 
2709.000000	10.338875 
2708.000000	10.344337 
2707.000000	10.349991 
2706.000000	10.360754 
2705.000000	10.380415 
2704.000000	10.402383 
2703.000000	10.414937 
2702.000000	10.416303 
2701.000000	10.416050 
2700.000000	10.420865 
2699.000000	10.428113 
2698.000000	10.434846 
2697.000000	10.442712 
2696.000000	10.450462 
2695.000000	10.451961 
2694.000000	10.447750 
2693.000000	10.449450 
2692.000000	10.464279 
2691.000000	10.481588 
2690.000000	10.483838 
2689.000000	10.468049 
2688.000000	10.448931 
2687.000000	10.442165 
2686.000000	10.450389 
2685.000000	10.465146 
2684.000000	10.477043 
2683.000000	10.482756 
2682.000000	10.485422 
2681.000000	10.490211 
2680.000000	10.499865 
2679.000000	10.514774 
2678.000000	10.535355 
2677.000000	10.560057 
2676.000000	10.580798 
2675.000000	10.585849 
2674.000000	10.570783 
2673.000000	10.544291 
2672.000000	10.521122 
2671.000000	10.511236 
2670.000000	10.515534 
2669.000000	10.527341 
2668.000000	10.536131 
2667.000000	10.534778 
2666.000000	10.527236 
2665.000000	10.525885 
2664.000000	10.537729 
2663.000000	10.556216 
2662.000000	10.570554 
2661.000000	10.579829 
2660.000000	10.592010 
2659.000000	10.610240 
2658.000000	10.626952 
2657.000000	10.633939 
2656.000000	10.632998 
2655.000000	10.631756 
2654.000000	10.631392 
2653.000000	10.624994 
2652.000000	10.610071 
2651.000000	10.597172 
2650.000000	10.599350 
2649.000000	10.614029 
2648.000000	10.623054 
2647.000000	10.614059 
2646.000000	10.596185 
2645.000000	10.589391 
2644.000000	10.602237 
2643.000000	10.625666 
2642.000000	10.645008 
2641.000000	10.651130 
2640.000000	10.642073 
2639.000000	10.623080 
2638.000000	10.606682 
2637.000000	10.605125 
2636.000000	10.618924 
2635.000000	10.636723 
2634.000000	10.648002 
2633.000000	10.651527 
2632.000000	10.650546 
2631.000000	10.646638 
2630.000000	10.641922 
2629.000000	10.641505 
2628.000000	10.648484 
2627.000000	10.659815 
2626.000000	10.671478 
2625.000000	10.684224 
2624.000000	10.699057 
2623.000000	10.709674 
2622.000000	10.706154 
2621.000000	10.686681 
2620.000000	10.660906 
2619.000000	10.640530 
2618.000000	10.629796 
2617.000000	10.625870 
2616.000000	10.624413 
2615.000000	10.622046 
2614.000000	10.616199 
2613.000000	10.606797 
2612.000000	10.598222 
2611.000000	10.596165 
2610.000000	10.600548 
2609.000000	10.603487 
2608.000000	10.596980 
2607.000000	10.582355 
2606.000000	10.569725 
2605.000000	10.567745 
2604.000000	10.576147 
2603.000000	10.588913 
2602.000000	10.601779 
2601.000000	10.614247 
2600.000000	10.626269 
2599.000000	10.636144 
2598.000000	10.641473 
2597.000000	10.640576 
2596.000000	10.633453 
2595.000000	10.622444 
2594.000000	10.611073 
2593.000000	10.601534 
2592.000000	10.594850 
2591.000000	10.593814 
2590.000000	10.602026 
2589.000000	10.616791 
2588.000000	10.625964 
2587.000000	10.617388 
2586.000000	10.592007 
2585.000000	10.564276 
2584.000000	10.549258 
2583.000000	10.551687 
2582.000000	10.566637 
2581.000000	10.586437 
2580.000000	10.605252 
2579.000000	10.619919 
2578.000000	10.629293 
2577.000000	10.633264 
2576.000000	10.632438 
2575.000000	10.628887 
2574.000000	10.625827 
2573.000000	10.625267 
2572.000000	10.627041 
2571.000000	10.630988 
2570.000000	10.637905 
2569.000000	10.646539 
2568.000000	10.652205 
2567.000000	10.651481 
2566.000000	10.646605 
2565.000000	10.642112 
2564.000000	10.638565 
2563.000000	10.632930 
2562.000000	10.624247 
2561.000000	10.616153 
2560.000000	10.614972 
2559.000000	10.626834 
2558.000000	10.652421 
2557.000000	10.680349 
2556.000000	10.691318 
2555.000000	10.678143 
2554.000000	10.659848 
2553.000000	10.664974 
2552.000000	10.698115 
2551.000000	10.731952 
2550.000000	10.737450 
2549.000000	10.714316 
2548.000000	10.684874 
2547.000000	10.664927 
2546.000000	10.651152 
2545.000000	10.635032 
2544.000000	10.617676 
2543.000000	10.606470 
2542.000000	10.603270 
2541.000000	10.601539 
2540.000000	10.593990 
2539.000000	10.579602 
2538.000000	10.562679 
2537.000000	10.546687 
2536.000000	10.530043 
2535.000000	10.508016 
2534.000000	10.478389 
2533.000000	10.444704 
2532.000000	10.413828 
2531.000000	10.390793 
2530.000000	10.375737 
2529.000000	10.364486 
2528.000000	10.351397 
2527.000000	10.332764 
2526.000000	10.308666 
2525.000000	10.281238 
2524.000000	10.250976 
2523.000000	10.216151 
2522.000000	10.176967 
2521.000000	10.138967 
2520.000000	10.110379 
2519.000000	10.096218 
2518.000000	10.096102 
2517.000000	10.106644 
2516.000000	10.122941 
2515.000000	10.137608 
2514.000000	10.142659 
2513.000000	10.136192 
2512.000000	10.126367 
2511.000000	10.125612 
2510.000000	10.140099 
2509.000000	10.166340 
2508.000000	10.197555 
2507.000000	10.230508 
2506.000000	10.265394 
2505.000000	10.302215 
2504.000000	10.339720 
2503.000000	10.376160 
2502.000000	10.408529 
2501.000000	10.432408 
2500.000000	10.445988 
2499.000000	10.454349 
2498.000000	10.466481 
2497.000000	10.486713 
2496.000000	10.511396 
2495.000000	10.535182 
2494.000000	10.558008 
2493.000000	10.583599 
2492.000000	10.613168 
2491.000000	10.644203 
2490.000000	10.675294 
2489.000000	10.707972 
2488.000000	10.741101 
2487.000000	10.766045 
2486.000000	10.772752 
2485.000000	10.762590 
2484.000000	10.751634 
2483.000000	10.756797 
2482.000000	10.778931 
2481.000000	10.803297 
2480.000000	10.816789 
2479.000000	10.820539 
2478.000000	10.824315 
2477.000000	10.833448 
2476.000000	10.845310 
2475.000000	10.855256 
2474.000000	10.860808 
2473.000000	10.861105 
2472.000000	10.856768 
2471.000000	10.850321 
2470.000000	10.843820 
2469.000000	10.837220 
2468.000000	10.832203 
2467.000000	10.835134 
2466.000000	10.850266 
2465.000000	10.870177 
2464.000000	10.879037 
2463.000000	10.868171 
2462.000000	10.845386 
2461.000000	10.827094 
2460.000000	10.823094 
2459.000000	10.829137 
2458.000000	10.832261 
2457.000000	10.823947 
2456.000000	10.810390 
2455.000000	10.807727 
2454.000000	10.823207 
2453.000000	10.843432 
2452.000000	10.847267 
2451.000000	10.829375 
2450.000000	10.803474 
2449.000000	10.781918 
2448.000000	10.761675 
2447.000000	10.734806 
2446.000000	10.704069 
2445.000000	10.679629 
2444.000000	10.664221 
2443.000000	10.650023 
2442.000000	10.630232 
2441.000000	10.607711 
2440.000000	10.590511 
2439.000000	10.582276 
2438.000000	10.579163 
2437.000000	10.575056 
2436.000000	10.568180 
2435.000000	10.561867 
2434.000000	10.558991 
2433.000000	10.557286 
2432.000000	10.551654 
2431.000000	10.539648 
2430.000000	10.522463 
2429.000000	10.502244 
2428.000000	10.481888 
2427.000000	10.466148 
2426.000000	10.458299 
2425.000000	10.455401 
2424.000000	10.450569 
2423.000000	10.440150 
2422.000000	10.425249 
2421.000000	10.406794 
2420.000000	10.384018 
2419.000000	10.358182 
2418.000000	10.332820 
2417.000000	10.309359 
2416.000000	10.286794 
2415.000000	10.266052 
2414.000000	10.249692 
2413.000000	10.236650 
2412.000000	10.222558 
2411.000000	10.206500 
2410.000000	10.192240 
2409.000000	10.181145 
2408.000000	10.168583 
2407.000000	10.148575 
2406.000000	10.118166 
2405.000000	10.078683 
2404.000000	10.039562 
2403.000000	10.018993 
2402.000000	10.029275 
2401.000000	10.057856 
2400.000000	10.072841 
2399.000000	10.054267 
2398.000000	10.013239 
2397.000000	9.974647  
2396.000000	9.949093  
2395.000000	9.929677  
2394.000000	9.908542  
2393.000000	9.884610  
2392.000000	9.858693  
2391.000000	9.832096  
2390.000000	9.810306  
2389.000000	9.800327  
2388.000000	9.802717  
2387.000000	9.810899  
2386.000000	9.818232  
2385.000000	9.821927  
2384.000000	9.821780  
2383.000000	9.821370  
2382.000000	9.830339  
2381.000000	9.858584  
2380.000000	9.904828  
2379.000000	9.953393  
2378.000000	9.984955  
2377.000000	9.989381  
2376.000000	9.965858  
2375.000000	9.923897  
2374.000000	9.877998  
2373.000000	9.838081  
2372.000000	9.800266  
2371.000000	9.755986  
2370.000000	9.717902  
2369.000000	9.724590  
2368.000000	9.798070  
2367.000000	9.908224  
2366.000000	9.996072  
2365.000000	10.025635 
2364.000000	9.989287  
2363.000000	9.914455  
2362.000000	9.864918  
2361.000000	9.840355  
2360.000000	9.786831  
2359.000000	9.694307  
2358.000000	9.595698  
2357.000000	9.557218  
2356.000000	9.563342  
2355.000000	9.563416  
2354.000000	9.548510  
2353.000000	9.510285  
2352.000000	9.416307  
2351.000000	9.204089  
2350.000000	8.970408  
2349.000000	8.938402  
2348.000000	9.239699  
2347.000000	9.833831  
2346.000000	10.386642 
2345.000000	10.565419 
2344.000000	10.318035 
2343.000000	9.902696  
2342.000000	9.576905  
2341.000000	9.372466  
2340.000000	9.269118  
2339.000000	9.202528  
2338.000000	9.143045  
2337.000000	9.071355  
2336.000000	9.004907  
2335.000000	8.944339  
2334.000000	8.909256  
2333.000000	8.883622  
2332.000000	8.865827  
2331.000000	8.798762  
2330.000000	8.694318  
2329.000000	8.596857  
2328.000000	8.523023  
2327.000000	8.483949  
2326.000000	8.437883  
2325.000000	8.401042  
2324.000000	8.367531  
2323.000000	8.330170  
2322.000000	8.291144  
2321.000000	8.242132  
2320.000000	8.213116  
2319.000000	8.189391  
2318.000000	8.178954  
2317.000000	8.168722  
2316.000000	8.180400  
2315.000000	8.208574  
2314.000000	8.242328  
2313.000000	8.250246  
2312.000000	8.226223  
2311.000000	8.182783  
2310.000000	8.140512  
2309.000000	8.106088  
2308.000000	8.074511  
2307.000000	8.042923  
2306.000000	8.016220  
2305.000000	7.999074  
2304.000000	7.994674  
2303.000000	7.997793  
2302.000000	8.006606  
2301.000000	8.010420  
2300.000000	8.002151  
2299.000000	7.979935  
2298.000000	7.953713  
2297.000000	7.933082  
2296.000000	7.914500  
2295.000000	7.889573  
2294.000000	7.852306  
2293.000000	7.813293  
2292.000000	7.780891  
2291.000000	7.756899  
2290.000000	7.732972  
2289.000000	7.708768  
2288.000000	7.690515  
2287.000000	7.682255  
2286.000000	7.675151  
2285.000000	7.657374  
2284.000000	7.629241  
2283.000000	7.603766  
2282.000000	7.590634  
2281.000000	7.583204  
2280.000000	7.569008  
2279.000000	7.544458  
2278.000000	7.518510  
2277.000000	7.497825  
2276.000000	7.482553  
2275.000000	7.469200  
2274.000000	7.455352  
2273.000000	7.437892  
2272.000000	7.413116  
2271.000000	7.382980  
2270.000000	7.354592  
2269.000000	7.332521  
2268.000000	7.313484  
2267.000000	7.291222  
2266.000000	7.264221  
2265.000000	7.235978  
2264.000000	7.210589  
2263.000000	7.192013  
2262.000000	7.180465  
2261.000000	7.171958  
2260.000000	7.159626  
2259.000000	7.140696  
2258.000000	7.118360  
2257.000000	7.094819  
2256.000000	7.072044  
2255.000000	7.056442  
2254.000000	7.058958  
2253.000000	7.078734  
2252.000000	7.095479  
2251.000000	7.084514  
2250.000000	7.039894  
2249.000000	6.977476  
2248.000000	6.916744  
2247.000000	6.867028  
2246.000000	6.828333  
2245.000000	6.798679  
2244.000000	6.776629  
2243.000000	6.761918  
2242.000000	6.754905  
2241.000000	6.753940  
2240.000000	6.753259  
2239.000000	6.746886  
2238.000000	6.734134  
2237.000000	6.718771  
2236.000000	6.703775  
2235.000000	6.689715  
2234.000000	6.676607  
2233.000000	6.663655  
2232.000000	6.649271  
2231.000000	6.635246  
2230.000000	6.628351  
2229.000000	6.631486  
2228.000000	6.635157  
2227.000000	6.624945  
2226.000000	6.598447  
2225.000000	6.568396  
2224.000000	6.547838  
2223.000000	6.537938  
2222.000000	6.531808  
2221.000000	6.523978  
2220.000000	6.512643  
2219.000000	6.497587  
2218.000000	6.480308  
2217.000000	6.463880  
2216.000000	6.449560  
2215.000000	6.435164  
2214.000000	6.418229  
2213.000000	6.399004  
2212.000000	6.379704  
2211.000000	6.363197  
2210.000000	6.352451  
2209.000000	6.347969  
2208.000000	6.345418  
2207.000000	6.339181  
2206.000000	6.328194  
2205.000000	6.314418  
2204.000000	6.296636  
2203.000000	6.272550  
2202.000000	6.248294  
2201.000000	6.237939  
2200.000000	6.248501  
2199.000000	6.270363  
2198.000000	6.287219  
2197.000000	6.291550  
2196.000000	6.286227  
2195.000000	6.275694  
2194.000000	6.262198  
2193.000000	6.248691  
2192.000000	6.238585  
2191.000000	6.231576  
2190.000000	6.223732  
2189.000000	6.212914  
2188.000000	6.201825  
2187.000000	6.195119  
2186.000000	6.194641  
2185.000000	6.196979  
2184.000000	6.195009  
2183.000000	6.183658  
2182.000000	6.165422  
2181.000000	6.148439  
2180.000000	6.137818  
2179.000000	6.130900  
2178.000000	6.122602  
2177.000000	6.112626  
2176.000000	6.104325  
2175.000000	6.098612  
2174.000000	6.093176  
2173.000000	6.087766  
2172.000000	6.086870  
2171.000000	6.094948  
2170.000000	6.109204  
2169.000000	6.118550  
2168.000000	6.112174  
2167.000000	6.090708  
2166.000000	6.067172  
2165.000000	6.054347  
2164.000000	6.052353  
2163.000000	6.051285  
2162.000000	6.043927  
2161.000000	6.031195  
2160.000000	6.016741  
2159.000000	6.003314  
2158.000000	5.995077  
2157.000000	5.996294  
2156.000000	6.006111  
2155.000000	6.021911  
2154.000000	6.048814  
2153.000000	6.094582  
2152.000000	6.149245  
2151.000000	6.180942  
2150.000000	6.164041  
2149.000000	6.107352  
2148.000000	6.044730  
2147.000000	6.001080  
2146.000000	5.977879  
2145.000000	5.967915  
2144.000000	5.968463  
2143.000000	5.976658  
2142.000000	5.984470  
2141.000000	5.985523  
2140.000000	5.981123  
2139.000000	5.975326  
2138.000000	5.969190  
2137.000000	5.963090  
2136.000000	5.959255  
2135.000000	5.958285  
2134.000000	5.957899  
2133.000000	5.958524  
2132.000000	5.965117  
2131.000000	5.979021  
2130.000000	5.992470  
2129.000000	5.996877  
2128.000000	5.993905  
2127.000000	5.992509  
2126.000000	5.996005  
2125.000000	5.997154  
2124.000000	5.986997  
2123.000000	5.965526  
2122.000000	5.942309  
2121.000000	5.928234  
2120.000000	5.928023  
2119.000000	5.940322  
2118.000000	5.962669  
2117.000000	5.992867  
2116.000000	6.024341  
2115.000000	6.044319  
2114.000000	6.042346  
2113.000000	6.021180  
2112.000000	5.995762  
2111.000000	5.980703  
2110.000000	5.980679  
2109.000000	5.991375  
2108.000000	6.004977  
2107.000000	6.014462  
2106.000000	6.017943  
2105.000000	6.020980  
2104.000000	6.030294  
2103.000000	6.043182  
2102.000000	6.047609  
2101.000000	6.035864  
2100.000000	6.014155  
2099.000000	5.995032  
2098.000000	5.983534  
2097.000000	5.975204  
2096.000000	5.965914  
2095.000000	5.957962  
2094.000000	5.956298  
2093.000000	5.962380  
2092.000000	5.972377  
2091.000000	5.979784  
2090.000000	5.980410  
2089.000000	5.976100  
2088.000000	5.972421  
2087.000000	5.971648  
2086.000000	5.969435  
2085.000000	5.959720  
2084.000000	5.942026  
2083.000000	5.922585  
2082.000000	5.909533  
2081.000000	5.907977  
2080.000000	5.916974  
2079.000000	5.928757  
2078.000000	5.933229  
2077.000000	5.926868  
2076.000000	5.917029  
2075.000000	5.914639  
2074.000000	5.923563  
2073.000000	5.938863  
2072.000000	5.952920  
2071.000000	5.960835  
2070.000000	5.961026  
2069.000000	5.954673  
2068.000000	5.945321  
2067.000000	5.936547  
2066.000000	5.929026  
2065.000000	5.921304  
2064.000000	5.913593  
2063.000000	5.908311  
2062.000000	5.906642  
2061.000000	5.907015  
2060.000000	5.907398  
2059.000000	5.906995  
2058.000000	5.904687  
2057.000000	5.898003  
2056.000000	5.886334  
2055.000000	5.874862  
2054.000000	5.872337  
2053.000000	5.882694  
2052.000000	5.899200  
2051.000000	5.909565  
2050.000000	5.907941  
2049.000000	5.900471  
2048.000000	5.897389  
2047.000000	5.901001  
2046.000000	5.903509  
2045.000000	5.896392  
2044.000000	5.879097  
2043.000000	5.858115  
2042.000000	5.841258  
2041.000000	5.834190  
2040.000000	5.838062  
2039.000000	5.847023  
2038.000000	5.850637  
2037.000000	5.842809  
2036.000000	5.828166  
2035.000000	5.816744  
2034.000000	5.813191  
2033.000000	5.814928  
2032.000000	5.819887  
2031.000000	5.830273  
2030.000000	5.846615  
2029.000000	5.862095  
2028.000000	5.866873  
2027.000000	5.857985  
2026.000000	5.842284  
2025.000000	5.830163  
2024.000000	5.826231  
2023.000000	5.826701  
2022.000000	5.824126  
2021.000000	5.814840  
2020.000000	5.802563  
2019.000000	5.795155  
2018.000000	5.797751  
2017.000000	5.808405  
2016.000000	5.819419  
2015.000000	5.822619  
2014.000000	5.814839  
2013.000000	5.800506  
2012.000000	5.788956  
2011.000000	5.786860  
2010.000000	5.792447  
2009.000000	5.798868  
2008.000000	5.802394  
2007.000000	5.804164  
2006.000000	5.803618  
2005.000000	5.795478  
2004.000000	5.775696  
2003.000000	5.749384  
2002.000000	5.728838  
2001.000000	5.723670  
2000.000000	5.734278  
1999.000000	5.752678  
1998.000000	5.769666  
1997.000000	5.778966  
1996.000000	5.779028  
1995.000000	5.773609  
1994.000000	5.769746  
1993.000000	5.772681  
1992.000000	5.781717  
1991.000000	5.790629  
1990.000000	5.792187  
1989.000000	5.782724  
1988.000000	5.763922  
1987.000000	5.742909  
1986.000000	5.729181  
1985.000000	5.728025  
1984.000000	5.736212  
1983.000000	5.744828  
1982.000000	5.747359  
1981.000000	5.745033  
1980.000000	5.744071  
1979.000000	5.747484  
1978.000000	5.752435  
1977.000000	5.752796  
1976.000000	5.744734  
1975.000000	5.730479  
1974.000000	5.717465  
1973.000000	5.712318  
1972.000000	5.715251  
1971.000000	5.721065  
1970.000000	5.725623  
1969.000000	5.729455  
1968.000000	5.734374  
1967.000000	5.738891  
1966.000000	5.738728  
1965.000000	5.731359  
1964.000000	5.718536  
1963.000000	5.704265  
1962.000000	5.691973  
1961.000000	5.684794  
1960.000000	5.686410  
1959.000000	5.699157  
1958.000000	5.719651  
1957.000000	5.737170  
1956.000000	5.739732  
1955.000000	5.724694  
1954.000000	5.703037  
1953.000000	5.689482  
1952.000000	5.687463  
1951.000000	5.687985  
1950.000000	5.681185  
1949.000000	5.668131  
1948.000000	5.658489  
1947.000000	5.657486  
1946.000000	5.659607  
1945.000000	5.657278  
1944.000000	5.651800  
1943.000000	5.651263  
1942.000000	5.658316  
1941.000000	5.664858  
1940.000000	5.663014  
1939.000000	5.656054  
1938.000000	5.652575  
1937.000000	5.655152  
1936.000000	5.658364  
1935.000000	5.656695  
1934.000000	5.651141  
1933.000000	5.646325  
1932.000000	5.643736  
1931.000000	5.641219  
1930.000000	5.635667  
1929.000000	5.627534  
1928.000000	5.619244  
1927.000000	5.610594  
1926.000000	5.600849  
1925.000000	5.590335  
1924.000000	5.582388  
1923.000000	5.577048  
1922.000000	5.569689  
1921.000000	5.558270  
1920.000000	5.549947  
1919.000000	5.553617  
1918.000000	5.565935  
1917.000000	5.572514  
1916.000000	5.565794  
1915.000000	5.554556  
1914.000000	5.554788  
1913.000000	5.571823  
1912.000000	5.594702  
1911.000000	5.607078  
1910.000000	5.601647  
1909.000000	5.585856  
1908.000000	5.570278  
1907.000000	5.556242  
1906.000000	5.541788  
1905.000000	5.529802  
1904.000000	5.529861  
1903.000000	5.545179  
1902.000000	5.565458  
1901.000000	5.577170  
1900.000000	5.576365  
1899.000000	5.569651  
1898.000000	5.567136  
1897.000000	5.573318  
1896.000000	5.585734  
1895.000000	5.596659  
1894.000000	5.598653  
1893.000000	5.590670  
1892.000000	5.577625  
1891.000000	5.563808  
1890.000000	5.549762  
1889.000000	5.537355  
1888.000000	5.530399  
1887.000000	5.530810  
1886.000000	5.539214  
1885.000000	5.553007  
1884.000000	5.565414  
1883.000000	5.569454  
1882.000000	5.563502  
1881.000000	5.555175  
1880.000000	5.554623  
1879.000000	5.564220  
1878.000000	5.578379  
1877.000000	5.589825  
1876.000000	5.595624  
1875.000000	5.596888  
1874.000000	5.593806  
1873.000000	5.586275  
1872.000000	5.577842  
1871.000000	5.573687  
1870.000000	5.573668  
1869.000000	5.572209  
1868.000000	5.568882  
1867.000000	5.567559  
1866.000000	5.570325  
1865.000000	5.577850  
1864.000000	5.585748  
1863.000000	5.585047  
1862.000000	5.570485  
1861.000000	5.547189  
1860.000000	5.525695  
1859.000000	5.510325  
1858.000000	5.497924  
1857.000000	5.486314  
1856.000000	5.476554  
1855.000000	5.466387  
1854.000000	5.449654  
1853.000000	5.426891  
1852.000000	5.410010  
1851.000000	5.409558  
1850.000000	5.428045  
1849.000000	5.455911  
1848.000000	5.478512  
1847.000000	5.486848  
1846.000000	5.482625  
1845.000000	5.473581  
1844.000000	5.468444  
1843.000000	5.469697  
1842.000000	5.467822  
1841.000000	5.459298  
1840.000000	5.448774  
1839.000000	5.438326  
1838.000000	5.429648  
1837.000000	5.425695  
1836.000000	5.428541  
1835.000000	5.433241  
1834.000000	5.432037  
1833.000000	5.424250  
1832.000000	5.416351  
1831.000000	5.411514  
1830.000000	5.406755  
1829.000000	5.398338  
1828.000000	5.384638  
1827.000000	5.370336  
1826.000000	5.363323  
1825.000000	5.363140  
1824.000000	5.365902  
1823.000000	5.369436  
1822.000000	5.372810  
1821.000000	5.374823  
1820.000000	5.371660  
1819.000000	5.361505  
1818.000000	5.345849  
1817.000000	5.326261  
1816.000000	5.306303  
1815.000000	5.289134  
1814.000000	5.277703  
1813.000000	5.277224  
1812.000000	5.289770  
1811.000000	5.308414  
1810.000000	5.316378  
1809.000000	5.305866  
1808.000000	5.290593  
1807.000000	5.287257  
1806.000000	5.295713  
1805.000000	5.303883  
1804.000000	5.306068  
1803.000000	5.308065  
1802.000000	5.316328  
1801.000000	5.329364  
1800.000000	5.336951  
1799.000000	5.333989  
1798.000000	5.323351  
1797.000000	5.314433  
1796.000000	5.317485  
1795.000000	5.335465  
1794.000000	5.358550  
1793.000000	5.366207  
1792.000000	5.347626  
1791.000000	5.319638  
1790.000000	5.294910  
1789.000000	5.273681  
1788.000000	5.256630  
1787.000000	5.246146  
1786.000000	5.244307  
1785.000000	5.250479  
1784.000000	5.259253  
1783.000000	5.262446  
1782.000000	5.259403  
1781.000000	5.260728  
1780.000000	5.270800  
1779.000000	5.284445  
1778.000000	5.291633  
1777.000000	5.291369  
1776.000000	5.288387  
1775.000000	5.285270  
1774.000000	5.283436  
1773.000000	5.279744  
1772.000000	5.273988  
1771.000000	5.273472  
1770.000000	5.274034  
1769.000000	5.270432  
1768.000000	5.264599  
1767.000000	5.260447  
1766.000000	5.259280  
1765.000000	5.260210  
1764.000000	5.264972  
1763.000000	5.274564  
1762.000000	5.283187  
1761.000000	5.282939  
1760.000000	5.268857  
1759.000000	5.249772  
1758.000000	5.235936  
1757.000000	5.230239  
1756.000000	5.230586  
1755.000000	5.237531  
1754.000000	5.254746  
1753.000000	5.276012  
1752.000000	5.270935  
1751.000000	5.218480  
1750.000000	5.158908  
1749.000000	5.147511  
1748.000000	5.186174  
1747.000000	5.231765  
1746.000000	5.256259  
1745.000000	5.264174  
1744.000000	5.264682  
1743.000000	5.257920  
1742.000000	5.238313  
1741.000000	5.207393  
1740.000000	5.179576  
1739.000000	5.171494  
1738.000000	5.176228  
1737.000000	5.177000  
1736.000000	5.170053  
1735.000000	5.145016  
1734.000000	5.105421  
1733.000000	5.095468  
1732.000000	5.106460  
1731.000000	5.112136  
1730.000000	5.104410  
1729.000000	5.082979  
1728.000000	5.058364  
1727.000000	5.039988  
1726.000000	5.031641  
1725.000000	5.030258  
1724.000000	5.030744  
1723.000000	5.034334  
1722.000000	5.038614  
1721.000000	5.039499  
1720.000000	5.038059  
1719.000000	5.033590  
1718.000000	5.014920  
1717.000000	4.983564  
1716.000000	4.956309  
1715.000000	4.938101  
1714.000000	4.928828  
1713.000000	4.926394  
1712.000000	4.928643  
1711.000000	4.931023  
1710.000000	4.926556  
1709.000000	4.914561  
1708.000000	4.902527  
1707.000000	4.897408  
1706.000000	4.896096  
1705.000000	4.890387  
1704.000000	4.881349  
1703.000000	4.879379  
1702.000000	4.906716  
1701.000000	4.956624  
1700.000000	4.982620  
1699.000000	4.968578  
1698.000000	4.922368  
1697.000000	4.870335  
1696.000000	4.833907  
1695.000000	4.826203  
1694.000000	4.830996  
1693.000000	4.829965  
1692.000000	4.827547  
1691.000000	4.827361  
1690.000000	4.833190  
1689.000000	4.853000  
1688.000000	4.881093  
1687.000000	4.901814  
1686.000000	4.908592  
1685.000000	4.886023  
1684.000000	4.852223  
1683.000000	4.851309  
1682.000000	4.847867  
1681.000000	4.832107  
1680.000000	4.816337  
1679.000000	4.800006  
1678.000000	4.784620  
1677.000000	4.778239  
1676.000000	4.789849  
1675.000000	4.820839  
1674.000000	4.858887  
1673.000000	4.883623  
1672.000000	4.885899  
1671.000000	4.863473  
1670.000000	4.823006  
1669.000000	4.802079  
1668.000000	4.815355  
1667.000000	4.838356  
1666.000000	4.855098  
1665.000000	4.862243  
1664.000000	4.857587  
1663.000000	4.841468  
1662.000000	4.821921  
1661.000000	4.807253  
1660.000000	4.797567  
1659.000000	4.796553  
1658.000000	4.804276  
1657.000000	4.811776  
1656.000000	4.814296  
1655.000000	4.843672  
1654.000000	4.948762  
1653.000000	5.066136  
1652.000000	5.073915  
1651.000000	4.965289  
1650.000000	4.833976  
1649.000000	4.734002  
1648.000000	4.673423  
1647.000000	4.646580  
1646.000000	4.642740  
1645.000000	4.639564  
1644.000000	4.634550  
1643.000000	4.636305  
1642.000000	4.641165  
1641.000000	4.645897  
1640.000000	4.650992  
1639.000000	4.657359  
1638.000000	4.664721  
1637.000000	4.666727  
1636.000000	4.653747  
1635.000000	4.634981  
1634.000000	4.618139  
1633.000000	4.599276  
1632.000000	4.588525  
1631.000000	4.586933  
1630.000000	4.586416  
1629.000000	4.580070  
1628.000000	4.565497  
1627.000000	4.544152  
1626.000000	4.521246  
1625.000000	4.507246  
1624.000000	4.507061  
1623.000000	4.514261  
1622.000000	4.518557  
1621.000000	4.516180  
1620.000000	4.510008  
1619.000000	4.502423  
1618.000000	4.485263  
1617.000000	4.451678  
1616.000000	4.419517  
1615.000000	4.399498  
1614.000000	4.384506  
1613.000000	4.376010  
1612.000000	4.377014  
1611.000000	4.382573  
1610.000000	4.386648  
1609.000000	4.390302  
1608.000000	4.395448  
1607.000000	4.395279  
1606.000000	4.381598  
1605.000000	4.360472  
1604.000000	4.348807  
1603.000000	4.361048  
1602.000000	4.391813  
1601.000000	4.416951  
1600.000000	4.416421  
1599.000000	4.389348  
1598.000000	4.350125  
1597.000000	4.314689  
1596.000000	4.292349  
1595.000000	4.285351  
1594.000000	4.288540  
1593.000000	4.291571  
1592.000000	4.285507  
1591.000000	4.268589  
1590.000000	4.245602  
1589.000000	4.223028  
1588.000000	4.204977  
1587.000000	4.193757  
1586.000000	4.188713  
1585.000000	4.184878  
1584.000000	4.175133  
1583.000000	4.158003  
1582.000000	4.144935  
1581.000000	4.145187  
1580.000000	4.152213  
1579.000000	4.151507  
1578.000000	4.136993  
1577.000000	4.112191  
1576.000000	4.097667  
1575.000000	4.108528  
1574.000000	4.126686  
1573.000000	4.139769  
1572.000000	4.147225  
1571.000000	4.144227  
1570.000000	4.130339  
1569.000000	4.124466  
1568.000000	4.134317  
1567.000000	4.150775  
1566.000000	4.173031  
1565.000000	4.201139  
1564.000000	4.228110  
1563.000000	4.251806  
1562.000000	4.274405  
1561.000000	4.306400  
1560.000000	4.299106  
1559.000000	4.191692  
1558.000000	4.139220  
1557.000000	4.165323  
1556.000000	4.203946  
1555.000000	4.243028  
1554.000000	4.266461  
1553.000000	4.278936  
1552.000000	4.298055  
1551.000000	4.339032  
1550.000000	4.394015  
1549.000000	4.435069  
1548.000000	4.448726  
1547.000000	4.448243  
1546.000000	4.459928  
1545.000000	4.497980  
1544.000000	4.559066  
1543.000000	4.631674  
1542.000000	4.708823  
1541.000000	4.770313  
1540.000000	4.802177  
1539.000000	4.833013  
1538.000000	4.866732  
1537.000000	4.896524  
1536.000000	4.935897  
1535.000000	4.995250  
1534.000000	5.074182  
1533.000000	5.155031  
1532.000000	5.215061  
1531.000000	5.257927  
1530.000000	5.302811  
1529.000000	5.352673  
1528.000000	5.396164  
1527.000000	5.424438  
1526.000000	5.437550  
1525.000000	5.437411  
1524.000000	5.429465  
1523.000000	5.433750  
1522.000000	5.467665  
1521.000000	5.517482  
1520.000000	5.549707  
1519.000000	5.563236  
1518.000000	5.593749  
1517.000000	5.649739  
1516.000000	5.697000  
1515.000000	5.705390  
1514.000000	5.685631  
1513.000000	5.668031  
1512.000000	5.668804  
1511.000000	5.689114  
1510.000000	5.717103  
1509.000000	5.745685  
1508.000000	5.763083  
1507.000000	5.759075  
1506.000000	5.756939  
1505.000000	5.754887  
1504.000000	5.757098  
1503.000000	5.787161  
1502.000000	5.840062  
1501.000000	5.888807  
1500.000000	5.905197  
1499.000000	5.884987  
1498.000000	5.855187  
1497.000000	5.841443  
1496.000000	5.843009  
1495.000000	5.841776  
1494.000000	5.829284  
1493.000000	5.814810  
1492.000000	5.809919  
1491.000000	5.818527  
1490.000000	5.835487  
1489.000000	5.854997  
1488.000000	5.875887  
1487.000000	5.899313  
1486.000000	5.917359  
1485.000000	5.924924  
1484.000000	5.927955  
1483.000000	5.938194  
1482.000000	5.965312  
1481.000000	6.000611  
1480.000000	6.028502  
1479.000000	6.045649  
1478.000000	6.062259  
1477.000000	6.080602  
1476.000000	6.089445  
1475.000000	6.078712  
1474.000000	6.055132  
1473.000000	6.042781  
1472.000000	6.057097  
1471.000000	6.081742  
1470.000000	6.093782  
1469.000000	6.092669  
1468.000000	6.082627  
1467.000000	6.066760  
1466.000000	6.051997  
1465.000000	6.051169  
1464.000000	6.063945  
1463.000000	6.072565  
1462.000000	6.066401  
1461.000000	6.049020  
1460.000000	6.029262  
1459.000000	6.020662  
1458.000000	6.041102  
1457.000000	6.093566  
1456.000000	6.147392  
1455.000000	6.166861  
1454.000000	6.160620  
1453.000000	6.142496  
1452.000000	6.115471  
1451.000000	6.089766  
1450.000000	6.076425  
1449.000000	6.076068  
1448.000000	6.080823  
1447.000000	6.080881  
1446.000000	6.071202  
1445.000000	6.056600  
1444.000000	6.044055  
1443.000000	6.043423  
1442.000000	6.054640  
1441.000000	6.062049  
1440.000000	6.047556  
1439.000000	6.013095  
1438.000000	5.982374  
1437.000000	5.981567  
1436.000000	6.013683  
1435.000000	6.050097  
1434.000000	6.074026  
1433.000000	6.093718  
1432.000000	6.119416  
1431.000000	6.156353  
1430.000000	6.203883  
1429.000000	6.247634  
1428.000000	6.272058  
1427.000000	6.278356  
1426.000000	6.286125  
1425.000000	6.313443  
1424.000000	6.348515  
1423.000000	6.364250  
1422.000000	6.353126  
1421.000000	6.336236  
1420.000000	6.340164  
1419.000000	6.379551  
1418.000000	6.444665  
1417.000000	6.506867  
1416.000000	6.554911  
1415.000000	6.589126  
1414.000000	6.605012  
1413.000000	6.598315  
1412.000000	6.572787  
1411.000000	6.542756  
1410.000000	6.519528  
1409.000000	6.495861  
1408.000000	6.456636  
1407.000000	6.395314  
1406.000000	6.320016  
1405.000000	6.252463  
1404.000000	6.210809  
1403.000000	6.194909  
1402.000000	6.187411  
1401.000000	6.166678  
1400.000000	6.116682  
1399.000000	6.045431  
1398.000000	5.981401  
1397.000000	5.936583  
1396.000000	5.902352  
1395.000000	5.868511  
1394.000000	5.832306  
1393.000000	5.790091  
1392.000000	5.736317  
1391.000000	5.675087  
1390.000000	5.616476  
1389.000000	5.567777  
1388.000000	5.528968  
1387.000000	5.496198  
1386.000000	5.466211  
1385.000000	5.436955  
1384.000000	5.406123  
1383.000000	5.369573  
1382.000000	5.320431  
1381.000000	5.254131  
1380.000000	5.175705  
1379.000000	5.098399  
1378.000000	5.035461  
1377.000000	4.992375  
1376.000000	4.967977  
1375.000000	4.955374  
1374.000000	4.941655  
1373.000000	4.916127  
1372.000000	4.881030  
1371.000000	4.846397  
1370.000000	4.816224  
1369.000000	4.788011  
1368.000000	4.762091  
1367.000000	4.745117  
1366.000000	4.738724  
1365.000000	4.734827  
1364.000000	4.723415  
1363.000000	4.701888  
1362.000000	4.674200  
1361.000000	4.641790  
1360.000000	4.604256  
1359.000000	4.564135  
1358.000000	4.524201  
1357.000000	4.485305  
1356.000000	4.447652  
1355.000000	4.408305  
1354.000000	4.355982  
1353.000000	4.279139  
1352.000000	4.186058  
1351.000000	4.105698  
1350.000000	4.062580  
1349.000000	4.053348  
1348.000000	4.052732  
1347.000000	4.045619  
1346.000000	4.038093  
1345.000000	4.038520  
1344.000000	4.041393  
1343.000000	4.033720  
1342.000000	4.007681  
1341.000000	3.964416  
1340.000000	3.914015  
1339.000000	3.873291  
1338.000000	3.852906  
1337.000000	3.848077  
1336.000000	3.848092  
1335.000000	3.847827  
1334.000000	3.846507  
1333.000000	3.840448  
1332.000000	3.822272  
1331.000000	3.788778  
1330.000000	3.746440  
1329.000000	3.705769  
1328.000000	3.672116  
1327.000000	3.644153  
1326.000000	3.618644  
1325.000000	3.593395  
1324.000000	3.566299  
1323.000000	3.536755  
1322.000000	3.508973  
1321.000000	3.491279  
1320.000000	3.488325  
1319.000000	3.492907  
1318.000000	3.489340  
1317.000000	3.468692  
1316.000000	3.437279  
1315.000000	3.408501  
1314.000000	3.390559  
1313.000000	3.382871  
1312.000000	3.380987  
1311.000000	3.380602  
1310.000000	3.376458  
1309.000000	3.361936  
1308.000000	3.333735  
1307.000000	3.296236  
1306.000000	3.258725  
1305.000000	3.226185  
1304.000000	3.192443  
1303.000000	3.145624  
1302.000000	3.082931  
1301.000000	3.019991  
1300.000000	2.980961  
1299.000000	2.974449  
1298.000000	2.981556  
1297.000000	2.974609  
1296.000000	2.943293  
1295.000000	2.895085  
1294.000000	2.838735  
1293.000000	2.779807  
1292.000000	2.727779  
1291.000000	2.692054  
1290.000000	2.668262  
1289.000000	2.640763  
1288.000000	2.603631  
1287.000000	2.569117  
1286.000000	2.549630  
1285.000000	2.540507  
1284.000000	2.527384  
1283.000000	2.503443  
1282.000000	2.472950  
1281.000000	2.442827  
1280.000000	2.417129  
1279.000000	2.397557  
1278.000000	2.383761  
1277.000000	2.372825  
1276.000000	2.361300  
1275.000000	2.348031  
1274.000000	2.334721  
1273.000000	2.324061  
1272.000000	2.316289  
1271.000000	2.306895  
1270.000000	2.289798  
1269.000000	2.264708  
1268.000000	2.239426  
1267.000000	2.221802  
1266.000000	2.211765  
1265.000000	2.205644  
1264.000000	2.204542  
1263.000000	2.210152  
1262.000000	2.214638  
1261.000000	2.205999  
1260.000000	2.184666  
1259.000000	2.164298  
1258.000000	2.154007  
1257.000000	2.150382  
1256.000000	2.148718  
1255.000000	2.147663  
1254.000000	2.137481  
1253.000000	2.100817  
1252.000000	2.040451  
1251.000000	1.996292  
1250.000000	2.015154  
1249.000000	2.104038  
1248.000000	2.224269  
1247.000000	2.330060  
1246.000000	2.406058  
1245.000000	2.467523  
1244.000000	2.534256  
1243.000000	2.612556  
1242.000000	2.696821  
1241.000000	2.780370  
1240.000000	2.864663  
1239.000000	2.960843  
1238.000000	3.080869  
1237.000000	3.224599  
1236.000000	3.376826  
1235.000000	3.519076  
1234.000000	3.642856  
1233.000000	3.750631  
1232.000000	3.848824  
1231.000000	3.943379  
1230.000000	4.037005  
1229.000000	4.124915  
1228.000000	4.196104  
1227.000000	4.244549  
1226.000000	4.277860  
1225.000000	4.310528  
1224.000000	4.351646  
1223.000000	4.403519  
1222.000000	4.465784  
1221.000000	4.532311  
1220.000000	4.588765  
1219.000000	4.625199  
1218.000000	4.650448  
1217.000000	4.682132  
1216.000000	4.723356  
1215.000000	4.762051  
1214.000000	4.792230  
1213.000000	4.820923  
1212.000000	4.852671  
1211.000000	4.883479  
1210.000000	4.914918  
1209.000000	4.958587  
1208.000000	5.019331  
1207.000000	5.086632  
1206.000000	5.146988  
1205.000000	5.188921  
1204.000000	5.192124  
1203.000000	5.138854  
1202.000000	5.054638  
1201.000000	5.013873  
1200.000000	5.077376  
1199.000000	5.229744  
1198.000000	5.395077  
1197.000000	5.514127  
1196.000000	5.587879  
1195.000000	5.647634  
1194.000000	5.713221  
1193.000000	5.788446  
1192.000000	5.870869  
1191.000000	5.950197  
1190.000000	6.011448  
1189.000000	6.052000  
1188.000000	6.088000  
1187.000000	6.137802  
1186.000000	6.205035  
1185.000000	6.280961  
1184.000000	6.355033  
1183.000000	6.419208  
1182.000000	6.470931  
1181.000000	6.517045  
1180.000000	6.568575  
1179.000000	6.629780  
1178.000000	6.698052  
1177.000000	6.772326  
1176.000000	6.851402  
1175.000000	6.925314  
1174.000000	6.982184  
1173.000000	7.025816  
1172.000000	7.073518  
1171.000000	7.134005  
1170.000000	7.200307  
1169.000000	7.266494  
1168.000000	7.336072  
1167.000000	7.408559  
1166.000000	7.472987  
1165.000000	7.524414  
1164.000000	7.575258  
1163.000000	7.640255  
1162.000000	7.720527  
1161.000000	7.810514  
1160.000000	7.907650  
1159.000000	8.005487  
1158.000000	8.091121  
1157.000000	8.161766  
1156.000000	8.228629  
1155.000000	8.287724  
1154.000000	8.304305  
1153.000000	8.257939  
1152.000000	8.200164  
1151.000000	8.230184  
1150.000000	8.397759  
1149.000000	8.648802  
1148.000000	8.879137  
1147.000000	9.032977  
1146.000000	9.135001  
1145.000000	9.235952  
1144.000000	9.356457  
1143.000000	9.489804  
1142.000000	9.633291  
1141.000000	9.795205  
1140.000000	9.977645  
1139.000000	10.170323 
1138.000000	10.363847 
1137.000000	10.558054 
1136.000000	10.753393 
1135.000000	10.942659 
1134.000000	11.116734 
1133.000000	11.273296 
1132.000000	11.416588 
1131.000000	11.554961 
1130.000000	11.702586 
1129.000000	11.875977 
1128.000000	12.080962 
1127.000000	12.306335 
1126.000000	12.536633 
1125.000000	12.768512 
1124.000000	13.008804 
1123.000000	13.260675 
1122.000000	13.520349 
1121.000000	13.786097 
1120.000000	14.061441 
1119.000000	14.347099 
1118.000000	14.636242 
1117.000000	14.922284 
1116.000000	15.209814 
1115.000000	15.513958 
1114.000000	15.844930 
1113.000000	16.191083 
1112.000000	16.521885 
1111.000000	16.815728 
1110.000000	17.084656 
1109.000000	17.361684 
1108.000000	17.663483 
1107.000000	17.976600 
1106.000000	18.280384 
1105.000000	18.569108 
1104.000000	18.844702 
1103.000000	19.102831 
1102.000000	19.340109 
1101.000000	19.565670 
1100.000000	19.794346 
1099.000000	20.032365 
1098.000000	20.274397 
1097.000000	20.510700 
1096.000000	20.732264 
1095.000000	20.933173 
1094.000000	21.113370 
1093.000000	21.276353 
1092.000000	21.422400 
1091.000000	21.551743 
1090.000000	21.675347 
1089.000000	21.810294 
1088.000000	21.958722 
1087.000000	22.101402 
1086.000000	22.218570 
1085.000000	22.308655 
1084.000000	22.382063 
1083.000000	22.447586 
1082.000000	22.511710 
1081.000000	22.581731 
1080.000000	22.661026 
1079.000000	22.745631 
1078.000000	22.829718 
1077.000000	22.909756 
1076.000000	22.981789 
1075.000000	23.042043 
1074.000000	23.092503 
1073.000000	23.138956 
1072.000000	23.183216 
1071.000000	23.225781 
1070.000000	23.274583 
1069.000000	23.338498 
1068.000000	23.411766 
1067.000000	23.478915 
1066.000000	23.537371 
1065.000000	23.600167 
1064.000000	23.672208 
1063.000000	23.740681 
1062.000000	23.796855 
1061.000000	23.851249 
1060.000000	23.915841 
1059.000000	23.984040 
1058.000000	24.041226 
1057.000000	24.086411 
1056.000000	24.131657 
1055.000000	24.187147 
1054.000000	24.256621 
1053.000000	24.339387 
1052.000000	24.425237 
1051.000000	24.492368 
1050.000000	24.524933 
1049.000000	24.533438 
1048.000000	24.544818 
1047.000000	24.574630 
1046.000000	24.619448 
1045.000000	24.668099 
1044.000000	24.710116 
1043.000000	24.740840 
1042.000000	24.767745 
1041.000000	24.807035 
1040.000000	24.866668 
1039.000000	24.938161 
1038.000000	25.012465 
1037.000000	25.097135 
1036.000000	25.207351 
1035.000000	25.343494 
1034.000000	25.487255 
1033.000000	25.619083 
1032.000000	25.733227 
1031.000000	25.838564 
1030.000000	25.951973 
1029.000000	26.087987 
1028.000000	26.246170 
1027.000000	26.408447 
1026.000000	26.555305 
1025.000000	26.685289 
1024.000000	26.814720 
1023.000000	26.959912 
1022.000000	27.123644 
1021.000000	27.296436 
1020.000000	27.465373 
1019.000000	27.621582 
1018.000000	27.762756 
1017.000000	27.889948 
1016.000000	28.003870 
1015.000000	28.108313 
1014.000000	28.215406 
1013.000000	28.337933 
1012.000000	28.472137 
1011.000000	28.595338 
1010.000000	28.686643 
1009.000000	28.746160 
1008.000000	28.790491 
1007.000000	28.835945 
1006.000000	28.891959 
1005.000000	28.964608 
1004.000000	29.056209 
1003.000000	29.158743 
1002.000000	29.250049 
1001.000000	29.299631 
1000.000000	29.285876 
999.000000	 29.216731 
998.000000	 29.131425 
997.000000	 29.070285 
996.000000	 29.038721 
995.000000	 29.007903 
994.000000	 28.952839 
993.000000	 28.879126 
992.000000	 28.806692 
991.000000	 28.738465 
990.000000	 28.655997 
989.000000	 28.541272 
988.000000	 28.394515 
987.000000	 28.233691 
986.000000	 28.082562 
985.000000	 27.955817 
984.000000	 27.850680 
983.000000	 27.754841 
982.000000	 27.664195 
981.000000	 27.588740 
980.000000	 27.540883 
979.000000	 27.526641 
978.000000	 27.551525 
977.000000	 27.624545 
976.000000	 27.748143 
975.000000	 27.910110 
974.000000	 28.092416 
973.000000	 28.283388 
972.000000	 28.476928 
971.000000	 28.668171 
970.000000	 28.857681 
969.000000	 29.052398 
968.000000	 29.252796 
967.000000	 29.444363 
966.000000	 29.610161 
965.000000	 29.746130 
964.000000	 29.856011 
963.000000	 29.938420 
962.000000	 29.990041 
961.000000	 30.016641 
960.000000	 30.029707 
959.000000	 30.034530 
958.000000	 30.028713 
957.000000	 30.006553 
956.000000	 29.957284 
955.000000	 29.869397 
954.000000	 29.751337 
953.000000	 29.640042 
952.000000	 29.568699 
951.000000	 29.525008 
950.000000	 29.457991 
949.000000	 29.330941 
948.000000	 29.156034 
947.000000	 28.975465 
946.000000	 28.823166 
945.000000	 28.709119 
944.000000	 28.626561 
943.000000	 28.562623 
942.000000	 28.505008 
941.000000	 28.445580 
940.000000	 28.379724 
939.000000	 28.305300 
938.000000	 28.226574 
937.000000	 28.154400 
936.000000	 28.092498 
935.000000	 28.025177 
934.000000	 27.930244 
933.000000	 27.805887 
932.000000	 27.673880 
931.000000	 27.552137 
930.000000	 27.433246 
929.000000	 27.294539 
928.000000	 27.120816 
927.000000	 26.911695 
926.000000	 26.674490 
925.000000	 26.418053 
924.000000	 26.150402 
923.000000	 25.876129 
922.000000	 25.595417 
921.000000	 25.305574 
920.000000	 25.001808 
919.000000	 24.679135 
918.000000	 24.339697 
917.000000	 23.998408 
916.000000	 23.675840 
915.000000	 23.384992 
914.000000	 23.128869 
913.000000	 22.907600 
912.000000	 22.718718 
911.000000	 22.551268 
910.000000	 22.392132 
909.000000	 22.244386 
908.000000	 22.132280 
907.000000	 22.081046 
906.000000	 22.092514 
905.000000	 22.140985 
904.000000	 22.191010 
903.000000	 22.224319 
902.000000	 22.260294 
901.000000	 22.349213 
900.000000	 22.532358 
899.000000	 22.802989 
898.000000	 23.111655 
897.000000	 23.411689 
896.000000	 23.692611 
895.000000	 23.968062 
894.000000	 24.246502 
893.000000	 24.522569 
892.000000	 24.783417 
891.000000	 25.011888 
890.000000	 25.193435 
889.000000	 25.332667 
888.000000	 25.457254 
887.000000	 25.595864 
886.000000	 25.757476 
885.000000	 25.937993 
884.000000	 26.135703 
883.000000	 26.347490 
882.000000	 26.557905 
881.000000	 26.747357 
880.000000	 26.907687 
879.000000	 27.035899 
878.000000	 27.115647 
877.000000	 27.120722 
876.000000	 27.038489 
875.000000	 26.878600 
874.000000	 26.658280 
873.000000	 26.389175 
872.000000	 26.078023 
871.000000	 25.728965 
870.000000	 25.343054 
869.000000	 24.924486 
868.000000	 24.490944 
867.000000	 24.072322 
866.000000	 23.695221 
865.000000	 23.368465 
864.000000	 23.081382 
863.000000	 22.812501 
862.000000	 22.541441 
861.000000	 22.258484 
860.000000	 21.966839 
859.000000	 21.676884 
858.000000	 21.398790 
857.000000	 21.138037 
856.000000	 20.890949 
855.000000	 20.640473 
854.000000	 20.361877 
853.000000	 20.042330 
852.000000	 19.698851 
851.000000	 19.373869 
850.000000	 19.107779 
849.000000	 18.909937 
848.000000	 18.753111 
847.000000	 18.598052 
846.000000	 18.425334 
845.000000	 18.241949 
844.000000	 18.059196 
843.000000	 17.873849 
842.000000	 17.676819 
841.000000	 17.471905 
840.000000	 17.274024 
839.000000	 17.090571 
838.000000	 16.914822 
837.000000	 16.737112 
836.000000	 16.552583 
835.000000	 16.358679 
834.000000	 16.156799 
833.000000	 15.957876 
832.000000	 15.774466 
831.000000	 15.604307 
830.000000	 15.433930 
829.000000	 15.263577 
828.000000	 15.115316 
827.000000	 15.005775 
826.000000	 14.919603 
825.000000	 14.822111 
824.000000	 14.693705 
823.000000	 14.542083 
822.000000	 14.386996 
821.000000	 14.245623 
820.000000	 14.128208 
819.000000	 14.034329 
818.000000	 13.951964 
817.000000	 13.868202 
816.000000	 13.783153 
815.000000	 13.707887 
814.000000	 13.646782 
813.000000	 13.587926 
812.000000	 13.516266 
811.000000	 13.433160 
810.000000	 13.354509 
809.000000	 13.287612 
808.000000	 13.220632 
807.000000	 13.143962 
806.000000	 13.069353 
805.000000	 13.005361 
804.000000	 12.918832 
803.000000	 12.758620 
802.000000	 12.537453 
801.000000	 12.358809 
800.000000	 12.325470 
799.000000	 12.430704 
798.000000	 12.568394 
797.000000	 12.645985 
796.000000	 12.656835 
795.000000	 12.641758 
794.000000	 12.621309 
793.000000	 12.585782 
792.000000	 12.523409 
791.000000	 12.432049 
790.000000	 12.317466 
789.000000	 12.201049 
788.000000	 12.117998 
787.000000	 12.089032 
786.000000	 12.098102 
785.000000	 12.108800 
784.000000	 12.097074 
783.000000	 12.060801 
782.000000	 12.008284 
781.000000	 11.950641 
780.000000	 11.900026 
779.000000	 11.864383 
778.000000	 11.844998 
777.000000	 11.840207 
776.000000	 11.843362 
775.000000	 11.837187 
774.000000	 11.805981 
773.000000	 11.759578 
772.000000	 11.729140 
771.000000	 11.729797 
770.000000	 11.741418 
769.000000	 11.736408 
768.000000	 11.712239 
767.000000	 11.684121 
766.000000	 11.658806 
765.000000	 11.629238 
764.000000	 11.586027 
763.000000	 11.523874 
762.000000	 11.447767 
761.000000	 11.382695 
760.000000	 11.359240 
759.000000	 11.372717 
758.000000	 11.372061 
757.000000	 11.310943 
756.000000	 11.202304 
755.000000	 11.102400 
754.000000	 11.046439 
753.000000	 11.019343 
752.000000	 10.988556 
751.000000	 10.947472 
750.000000	 10.920522 
749.000000	 10.934160 
748.000000	 10.986058 
747.000000	 11.040185 
746.000000	 11.053130 
745.000000	 11.007334 
744.000000	 10.918670 
743.000000	 10.819202 
742.000000	 10.745582 
741.000000	 10.735160 
740.000000	 10.803959 
739.000000	 10.920059 
738.000000	 11.021188 
737.000000	 11.072690 
736.000000	 11.093423 
735.000000	 11.116881 
734.000000	 11.151010 
733.000000	 11.191081 
732.000000	 11.244180 
731.000000	 11.311738 
730.000000	 11.365945 
729.000000	 11.374625 
728.000000	 11.342466 
727.000000	 11.300555 
726.000000	 11.261987 
725.000000	 11.218725 
724.000000	 11.173358 
723.000000	 11.137351 
722.000000	 11.098041 
721.000000	 11.023300 
720.000000	 10.913102 
719.000000	 10.815965 
718.000000	 10.775559 
717.000000	 10.789884 
716.000000	 10.833922 
715.000000	 10.894744 
714.000000	 10.970421 
713.000000	 11.048455 
712.000000	 11.102417 
711.000000	 11.105741 
710.000000	 11.043293 
709.000000	 10.920170 
708.000000	 10.767061 
707.000000	 10.630431 
706.000000	 10.543480 
705.000000	 10.503061 
704.000000	 10.477905 
703.000000	 10.436570 
702.000000	 10.369076 
701.000000	 10.288663 
700.000000	 10.213426 
699.000000	 10.151735 
698.000000	 10.104080 
697.000000	 10.070704 
696.000000	 10.051889 
695.000000	 10.037132 
694.000000	 10.010478 
693.000000	 9.971836  
692.000000	 9.937921  
691.000000	 9.922230  
690.000000	 9.920217  
689.000000	 9.919240  
688.000000	 9.913163  
687.000000	 9.897720  
686.000000	 9.871206  
685.000000	 9.844731  
684.000000	 9.833540  
683.000000	 9.839939  
682.000000	 9.861457  
681.000000	 9.915745  
680.000000	 10.033242 
679.000000	 10.212659 
678.000000	 10.406818 
677.000000	 10.569666 
676.000000	 10.678312 
675.000000	 10.731826 
674.000000	 10.729118 
673.000000	 10.659672 
672.000000	 10.523848 
671.000000	 10.314360 
670.000000	 10.037021 
669.000000	 9.678389  
668.000000	 9.210571  
667.000000	 8.826391  
666.000000	 8.801109  
665.000000	 9.061655  
664.000000	 9.317484  
663.000000	 9.409230  
662.000000	 9.357686  
661.000000	 9.256625  
660.000000	 9.179496  
659.000000	 9.143992  
658.000000	 9.127758  
657.000000	 9.118393  
656.000000	 9.120291  
655.000000	 9.136325  
654.000000	 9.160956  
653.000000	 9.245335  
652.000000	 9.549040  
651.000000	 10.025789 
650.000000	 10.285362 
649.000000	 10.211540 
648.000000	 10.124161 
647.000000	 10.195675 
646.000000	 10.350804 
645.000000	 10.513403 
644.000000	 10.638220 
643.000000	 10.694040 
642.000000	 10.668553 
641.000000	 10.579896 
640.000000	 10.478963 
639.000000	 10.408955 
638.000000	 10.357205 
637.000000	 10.270227 
636.000000	 10.124626 
635.000000	 9.952678  
634.000000	 9.796885  
633.000000	 9.667698  
632.000000	 9.548995  
631.000000	 9.417982  
630.000000	 9.256749  
629.000000	 9.072967  
628.000000	 8.910497  
627.000000	 8.809145  
626.000000	 8.750885  
625.000000	 8.688276  
624.000000	 8.629646  
623.000000	 8.636690  
622.000000	 8.720546  
621.000000	 8.798798  
620.000000	 8.793982  
619.000000	 8.742850  
618.000000	 8.763712  
617.000000	 8.917691  
616.000000	 9.146050  
615.000000	 9.356592  
614.000000	 9.520182  
613.000000	 9.671157  
612.000000	 9.861328  
611.000000	 10.122594 
610.000000	 10.451749 
609.000000	 10.823349 
608.000000	 11.207671 
607.000000	 11.573933 
606.000000	 11.892886 
605.000000	 12.158576 
604.000000	 12.402190 
603.000000	 12.659141 
602.000000	 12.909808 
601.000000	 13.071342 
600.000000	 13.082706 

