Wavenumber	Reflectance
4000.65	0.66936
3998.72	0.66983
3996.79	0.66958
3994.87	0.66980
3992.94	0.67061
3991.01	0.67065
3989.08	0.66975
3987.15	0.66880
3985.22	0.66874
3983.29	0.66962
3981.36	0.67033
3979.43	0.67038
3977.51	0.66993
3975.58	0.66911
3973.65	0.66871
3971.72	0.66863
3969.79	0.66900
3967.86	0.66927
3965.93	0.66864
3964.00	0.66811
3962.07	0.66848
3960.14	0.66913
3958.22	0.66956
3956.29	0.66961
3954.36	0.66911
3952.43	0.66890
3950.50	0.66893
3948.57	0.66890
3946.64	0.66907
3944.71	0.66927
3942.78	0.66881
3940.86	0.66820
3938.93	0.66794
3937.00	0.66792
3935.07	0.66832
3933.14	0.66910
3931.21	0.66920
3929.28	0.66900
3927.35	0.66927
3925.42	0.66911
3923.49	0.66826
3921.57	0.66786
3919.64	0.66856
3917.71	0.66886
3915.78	0.66798
3913.85	0.66724
3911.92	0.66726
3909.99	0.66771
3908.06	0.66785
3906.13	0.66779
3904.20	0.66873
3902.28	0.66936
3900.35	0.66869
3898.42	0.66753
3896.49	0.66650
3894.56	0.66609
3892.63	0.66627
3890.70	0.66678
3888.77	0.66645
3886.84	0.66627
3884.92	0.66676
3882.99	0.66734
3881.06	0.66789
3879.13	0.66741
3877.20	0.66712
3875.27	0.66747
3873.34	0.66711
3871.41	0.66736
3869.48	0.66765
3867.55	0.66615
3865.63	0.66596
3863.70	0.66684
3861.77	0.66629
3859.84	0.66535
3857.91	0.66488
3855.98	0.66698
3854.05	0.67169
3852.12	0.67118
3850.19	0.66704
3848.27	0.66513
3846.34	0.66425
3844.41	0.66459
3842.48	0.66491
3840.55	0.66533
3838.62	0.66612
3836.69	0.66584
3834.76	0.66539
3832.83	0.66554
3830.91	0.66468
3828.98	0.66340
3827.05	0.66351
3825.12	0.66362
3823.19	0.66394
3821.26	0.66472
3819.33	0.66353
3817.40	0.66315
3815.47	0.66395
3813.54	0.66287
3811.61	0.66221
3809.69	0.66210
3807.76	0.66225
3805.83	0.66162
3803.90	0.66111
3801.97	0.66356
3800.04	0.66430
3798.11	0.66275
3796.18	0.66180
3794.25	0.66105
3792.33	0.66076
3790.40	0.66049
3788.47	0.65995
3786.54	0.65971
3784.61	0.65980
3782.68	0.65977
3780.75	0.66025
3778.82	0.66004
3776.89	0.65846
3774.96	0.65781
3773.04	0.65810
3771.11	0.65848
3769.18	0.65852
3767.25	0.65773
3765.32	0.65721
3763.39	0.65738
3761.46	0.65796
3759.53	0.65875
3757.60	0.65877
3755.68	0.65739
3753.75	0.65739
3751.82	0.65985
3749.89	0.66030
3747.96	0.65799
3746.03	0.65841
3744.10	0.66000
3742.17	0.65689
3740.24	0.65408
3738.31	0.65483
3736.39	0.65675
3734.46	0.65705
3732.53	0.65533
3730.60	0.65282
3728.67	0.65107
3726.74	0.65098
3724.81	0.65042
3722.88	0.64890
3720.95	0.64702
3719.02	0.64459
3717.10	0.64199
3715.17	0.64033
3713.24	0.63977
3711.31	0.63869
3709.38	0.63521
3707.45	0.63054
3705.52	0.62675
3703.59	0.62454
3701.66	0.62215
3699.74	0.61896
3697.81	0.61648
3695.88	0.61399
3693.95	0.61135
3692.02	0.60979
3690.09	0.60866
3688.16	0.60697
3686.23	0.60382
3684.30	0.60081
3682.37	0.59959
3680.45	0.59933
3678.52	0.59913
3676.59	0.60030
3674.66	0.59955
3672.73	0.59683
3670.80	0.59676
3668.87	0.59623
3666.94	0.59409
3665.01	0.59186
3663.09	0.58970
3661.16	0.58839
3659.23	0.58719
3657.30	0.58610
3655.37	0.58505
3653.44	0.58363
3651.51	0.58349
3649.58	0.58338
3647.65	0.58059
3645.73	0.57660
3643.80	0.57400
3641.87	0.57243
3639.94	0.57120
3638.01	0.56966
3636.08	0.56771
3634.15	0.56654
3632.22	0.56544
3630.29	0.56521
3628.37	0.56387
3626.44	0.56040
3624.51	0.55738
3622.58	0.55495
3620.65	0.55415
3618.72	0.55351
3616.79	0.55195
3614.86	0.55084
3612.93	0.54958
3611.00	0.54770
3609.07	0.54545
3607.15	0.54293
3605.22	0.54074
3603.29	0.53968
3601.36	0.53915
3599.43	0.53860
3597.50	0.53750
3595.57	0.53628
3593.64	0.53571
3591.71	0.53551
3589.79	0.53525
3587.86	0.53465
3585.93	0.53273
3584.00	0.53024
3582.07	0.52909
3580.14	0.52861
3578.21	0.52794
3576.28	0.52666
3574.35	0.52511
3572.42	0.52438
3570.50	0.52383
3568.57	0.52370
3566.64	0.52394
3564.71	0.52281
3562.78	0.52108
3560.85	0.52043
3558.92	0.52012
3556.99	0.51949
3555.06	0.51898
3553.14	0.51886
3551.21	0.51867
3549.28	0.51775
3547.35	0.51687
3545.42	0.51707
3543.49	0.51686
3541.56	0.51628
3539.63	0.51667
3537.70	0.51637
3535.78	0.51474
3533.85	0.51364
3531.92	0.51316
3529.99	0.51303
3528.06	0.51252
3526.13	0.51151
3524.20	0.51105
3522.27	0.51051
3520.34	0.50995
3518.41	0.50964
3516.48	0.50917
3514.56	0.50878
3512.63	0.50824
3510.70	0.50765
3508.77	0.50763
3506.84	0.50734
3504.91	0.50658
3502.98	0.50614
3501.05	0.50516
3499.12	0.50390
3497.20	0.50387
3495.27	0.50405
3493.34	0.50339
3491.41	0.50259
3489.48	0.50224
3487.55	0.50211
3485.62	0.50105
3483.69	0.50019
3481.76	0.50018
3479.84	0.49974
3477.91	0.49914
3475.98	0.49896
3474.05	0.49909
3472.12	0.49924
3470.19	0.49846
3468.26	0.49717
3466.33	0.49645
3464.40	0.49646
3462.48	0.49666
3460.55	0.49649
3458.62	0.49551
3456.69	0.49467
3454.76	0.49425
3452.83	0.49351
3450.90	0.49288
3448.97	0.49294
3447.04	0.49282
3445.11	0.49212
3443.19	0.49195
3441.26	0.49229
3439.33	0.49215
3437.40	0.49165
3435.47	0.49114
3433.54	0.49085
3431.61	0.49018
3429.68	0.48914
3427.75	0.48887
3425.82	0.48902
3423.90	0.48914
3421.97	0.48893
3420.04	0.48810
3418.11	0.48800
3416.18	0.48843
3414.25	0.48780
3412.32	0.48703
3410.39	0.48713
3408.46	0.48677
3406.53	0.48637
3404.61	0.48654
3402.68	0.48675
3400.75	0.48719
3398.82	0.48726
3396.89	0.48695
3394.96	0.48670
3393.03	0.48674
3391.10	0.48697
3389.17	0.48693
3387.24	0.48664
3385.32	0.48577
3383.39	0.48550
3381.46	0.48606
3379.53	0.48601
3377.60	0.48573
3375.67	0.48569
3373.74	0.48552
3371.81	0.48573
3369.88	0.48593
3367.96	0.48553
3366.03	0.48486
3364.10	0.48411
3362.17	0.48376
3360.24	0.48414
3358.31	0.48418
3356.38	0.48384
3354.45	0.48406
3352.52	0.48451
3350.60	0.48420
3348.67	0.48386
3346.74	0.48443
3344.81	0.48472
3342.88	0.48460
3340.95	0.48473
3339.02	0.48476
3337.09	0.48466
3335.16	0.48435
3333.23	0.48422
3331.31	0.48438
3329.38	0.48416
3327.45	0.48410
3325.52	0.48438
3323.59	0.48408
3321.66	0.48369
3319.73	0.48400
3317.80	0.48408
3315.87	0.48377
3313.94	0.48382
3312.02	0.48431
3310.09	0.48473
3308.16	0.48464
3306.23	0.48432
3304.30	0.48412
3302.37	0.48436
3300.44	0.48418
3298.51	0.48405
3296.58	0.48447
3294.65	0.48453
3292.73	0.48462
3290.80	0.48461
3288.87	0.48441
3286.94	0.48464
3285.01	0.48460
3283.08	0.48427
3281.15	0.48401
3279.22	0.48370
3277.29	0.48344
3275.37	0.48356
3273.44	0.48411
3271.51	0.48413
3269.58	0.48363
3267.65	0.48385
3265.72	0.48391
3263.79	0.48365
3261.86	0.48335
3259.93	0.48345
3258.01	0.48355
3256.08	0.48330
3254.15	0.48356
3252.22	0.48383
3250.29	0.48379
3248.36	0.48379
3246.43	0.48385
3244.50	0.48392
3242.57	0.48416
3240.65	0.48409
3238.72	0.48370
3236.79	0.48317
3234.86	0.48279
3232.93	0.48300
3231.00	0.48303
3229.07	0.48294
3227.14	0.48278
3225.21	0.48284
3223.28	0.48317
3221.35	0.48352
3219.43	0.48376
3217.50	0.48363
3215.57	0.48353
3213.64	0.48351
3211.71	0.48323
3209.78	0.48313
3207.85	0.48378
3205.92	0.48412
3203.99	0.48372
3202.07	0.48389
3200.14	0.48419
3198.21	0.48392
3196.28	0.48408
3194.35	0.48454
3192.42	0.48444
3190.49	0.48447
3188.56	0.48471
3186.63	0.48428
3184.70	0.48440
3182.78	0.48492
3180.85	0.48461
3178.92	0.48476
3176.99	0.48500
3175.06	0.48429
3173.13	0.48370
3171.20	0.48403
3169.27	0.48470
3167.34	0.48513
3165.42	0.48513
3163.49	0.48480
3161.56	0.48456
3159.63	0.48457
3157.70	0.48454
3155.77	0.48437
3153.84	0.48442
3151.91	0.48477
3149.98	0.48489
3148.05	0.48506
3146.13	0.48489
3144.20	0.48490
3142.27	0.48508
3140.34	0.48463
3138.41	0.48433
3136.48	0.48424
3134.55	0.48450
3132.62	0.48491
3130.69	0.48489
3128.76	0.48505
3126.84	0.48456
3124.91	0.48411
3122.98	0.48458
3121.05	0.48485
3119.12	0.48466
3117.19	0.48436
3115.26	0.48383
3113.33	0.48374
3111.40	0.48380
3109.48	0.48346
3107.55	0.48321
3105.62	0.48339
3103.69	0.48330
3101.76	0.48323
3099.83	0.48353
3097.90	0.48332
3095.97	0.48296
3094.04	0.48302
3092.11	0.48287
3090.19	0.48261
3088.26	0.48256
3086.33	0.48269
3084.40	0.48259
3082.47	0.48234
3080.54	0.48218
3078.61	0.48211
3076.68	0.48153
3074.75	0.48116
3072.83	0.48143
3070.90	0.48157
3068.97	0.48137
3067.04	0.48098
3065.11	0.48043
3063.18	0.48015
3061.25	0.47979
3059.32	0.47954
3057.39	0.47959
3055.46	0.47944
3053.54	0.47940
3051.61	0.47942
3049.68	0.47895
3047.75	0.47840
3045.82	0.47835
3043.89	0.47811
3041.96	0.47718
3040.03	0.47661
3038.10	0.47636
3036.18	0.47598
3034.25	0.47547
3032.32	0.47523
3030.39	0.47492
3028.46	0.47439
3026.53	0.47404
3024.60	0.47346
3022.67	0.47301
3020.74	0.47280
3018.81	0.47210
3016.89	0.47120
3014.96	0.47036
3013.03	0.46964
3011.10	0.46913
3009.17	0.46883
3007.24	0.46830
3005.31	0.46770
3003.38	0.46693
3001.45	0.46625
2999.52	0.46570
2997.60	0.46482
2995.67	0.46378
2993.74	0.46292
2991.81	0.46202
2989.88	0.46143
2987.95	0.46107
2986.02	0.46055
2984.09	0.45966
2982.17	0.45868
2980.24	0.45798
2978.31	0.45771
2976.38	0.45690
2974.45	0.45568
2972.52	0.45491
2970.59	0.45444
2968.66	0.45348
2966.73	0.45237
2964.80	0.45124
2962.88	0.45032
2960.95	0.45002
2959.02	0.45003
2957.09	0.45020
2955.16	0.45023
2953.23	0.44968
2951.30	0.44898
2949.37	0.44889
2947.44	0.44937
2945.51	0.44933
2943.59	0.44825
2941.66	0.44677
2939.73	0.44569
2937.80	0.44485
2935.87	0.44382
2933.94	0.44242
2932.01	0.44098
2930.08	0.43959
2928.15	0.43826
2926.22	0.43725
2924.30	0.43665
2922.37	0.43621
2920.44	0.43615
2918.51	0.43625
2916.58	0.43654
2914.65	0.43749
2912.72	0.43962
2910.79	0.44175
2908.86	0.44254
2906.93	0.44260
2905.01	0.44276
2903.08	0.44298
2901.15	0.44272
2899.22	0.44205
2897.29	0.44165
2895.36	0.44181
2893.43	0.44173
2891.50	0.44127
2889.58	0.44113
2887.65	0.44054
2885.72	0.43956
2883.79	0.43899
2881.86	0.43850
2879.93	0.43766
2878.00	0.43672
2876.07	0.43601
2874.14	0.43582
2872.21	0.43525
2870.28	0.43435
2868.36	0.43385
2866.43	0.43330
2864.50	0.43219
2862.57	0.43109
2860.64	0.43002
2858.71	0.42869
2856.78	0.42737
2854.85	0.42663
2852.92	0.42582
2851.00	0.42475
2849.07	0.42409
2847.14	0.42474
2845.21	0.42651
2843.28	0.42778
2841.35	0.42778
2839.42	0.42727
2837.49	0.42686
2835.56	0.42679
2833.63	0.42667
2831.71	0.42647
2829.78	0.42601
2827.85	0.42542
2825.92	0.42501
2823.99	0.42470
2822.06	0.42406
2820.13	0.42328
2818.20	0.42289
2816.27	0.42259
2814.35	0.42130
2812.42	0.42026
2810.49	0.42036
2808.56	0.42029
2806.63	0.41959
2804.70	0.41895
2802.77	0.41828
2800.84	0.41753
2798.91	0.41700
2796.99	0.41692
2795.06	0.41646
2793.13	0.41574
2791.20	0.41508
2789.27	0.41449
2787.34	0.41384
2785.41	0.41312
2783.48	0.41231
2781.55	0.41143
2779.62	0.41051
2777.70	0.40974
2775.77	0.40919
2773.84	0.40845
2771.91	0.40740
2769.98	0.40677
2768.05	0.40610
2766.12	0.40506
2764.19	0.40406
2762.26	0.40336
2760.33	0.40253
2758.41	0.40166
2756.48	0.40110
2754.55	0.40059
2752.62	0.39955
2750.69	0.39852
2748.76	0.39776
2746.83	0.39689
2744.90	0.39613
2742.97	0.39528
2741.04	0.39458
2739.12	0.39383
2737.19	0.39283
2735.26	0.39203
2733.33	0.39107
2731.40	0.39031
2729.47	0.38956
2727.54	0.38892
2725.61	0.38843
2723.68	0.38789
2721.76	0.38709
2719.83	0.38613
2717.90	0.38502
2715.97	0.38408
2714.04	0.38345
2712.11	0.38273
2710.18	0.38163
2708.25	0.38081
2706.32	0.37996
2704.39	0.37897
2702.47	0.37799
2700.54	0.37711
2698.61	0.37636
2696.68	0.37530
2694.75	0.37429
2692.82	0.37404
2690.89	0.37367
2688.96	0.37274
2687.03	0.37143
2685.11	0.36996
2683.18	0.36878
2681.25	0.36796
2679.32	0.36716
2677.39	0.36657
2675.46	0.36586
2673.53	0.36493
2671.60	0.36398
2669.67	0.36318
2667.74	0.36228
2665.82	0.36157
2663.89	0.36073
2661.96	0.35949
2660.03	0.35836
2658.10	0.35737
2656.17	0.35639
2654.24	0.35587
2652.31	0.35512
2650.38	0.35401
2648.46	0.35273
2646.53	0.35194
2644.60	0.35140
2642.67	0.35060
2640.74	0.34934
2638.81	0.34820
2636.88	0.34752
2634.95	0.34681
2633.02	0.34569
2631.09	0.34493
2629.17	0.34435
2627.24	0.34349
2625.31	0.34273
2623.38	0.34210
2621.45	0.34125
2619.52	0.34073
2617.59	0.34004
2615.66	0.33909
2613.73	0.33816
2611.80	0.33757
2609.88	0.33714
2607.95	0.33672
2606.02	0.33610
2604.09	0.33554
2602.16	0.33489
2600.23	0.33442
2598.30	0.33416
2596.37	0.33361
2594.45	0.33290
2592.52	0.33244
2590.59	0.33198
2588.66	0.33162
2586.73	0.33153
2584.80	0.33122
2582.87	0.33048
2580.94	0.32997
2579.01	0.32961
2577.08	0.32899
2575.15	0.32837
2573.23	0.32793
2571.30	0.32735
2569.37	0.32684
2567.44	0.32631
2565.51	0.32582
2563.58	0.32532
2561.65	0.32500
2559.72	0.32460
2557.79	0.32395
2555.87	0.32327
2553.94	0.32291
2552.01	0.32221
2550.08	0.32133
2548.15	0.32042
2546.22	0.31978
2544.29	0.31937
2542.36	0.31892
2540.43	0.31824
2538.50	0.31746
2536.58	0.31690
2534.65	0.31638
2532.72	0.31555
2530.79	0.31480
2528.86	0.31399
2526.93	0.31305
2525.00	0.31222
2523.07	0.31147
2521.14	0.31050
2519.22	0.30941
2517.29	0.30806
2515.36	0.30693
2513.43	0.30595
2511.50	0.30482
2509.57	0.30367
2507.64	0.30246
2505.71	0.30125
2503.78	0.30014
2501.85	0.29870
2499.93	0.29723
2498.00	0.29595
2496.07	0.29516
2494.14	0.29443
2492.21	0.29375
2490.28	0.29330
2488.35	0.29290
2486.42	0.29251
2484.49	0.29214
2482.57	0.29202
2480.64	0.29217
2478.71	0.29222
2476.78	0.29243
2474.85	0.29246
2472.92	0.29251
2470.99	0.29255
2469.06	0.29270
2467.13	0.29293
2465.20	0.29289
2463.28	0.29252
2461.35	0.29195
2459.42	0.29174
2457.49	0.29165
2455.56	0.29120
2453.63	0.29073
2451.70	0.29016
2449.77	0.28953
2447.84	0.28895
2445.92	0.28847
2443.99	0.28778
2442.06	0.28683
2440.13	0.28609
2438.20	0.28560
2436.27	0.28492
2434.34	0.28416
2432.41	0.28335
2430.48	0.28267
2428.56	0.28209
2426.63	0.28148
2424.70	0.28059
2422.77	0.27977
2420.84	0.27912
2418.91	0.27857
2416.98	0.27759
2415.05	0.27648
2413.12	0.27557
2411.19	0.27492
2409.27	0.27425
2407.34	0.27362
2405.41	0.27283
2403.48	0.27190
2401.55	0.27104
2399.62	0.27046
2397.69	0.26956
2395.76	0.26845
2393.83	0.26756
2391.90	0.26684
2389.98	0.26603
2388.05	0.26518
2386.12	0.26439
2384.19	0.26365
2382.26	0.26308
2380.33	0.26278
2378.40	0.26233
2376.47	0.26193
2374.54	0.26163
2372.61	0.26140
2370.69	0.26091
2368.76	0.26053
2366.83	0.26048
2364.90	0.26043
2362.97	0.25984
2361.04	0.25892
2359.11	0.25792
2357.18	0.25678
2355.25	0.25549
2353.32	0.25395
2351.40	0.25224
2349.47	0.25099
2347.54	0.25041
2345.61	0.25049
2343.68	0.25024
2341.75	0.24971
2339.82	0.24898
2337.89	0.24831
2335.97	0.24781
2334.04	0.24661
2332.11	0.24530
2330.18	0.24453
2328.25	0.24359
2326.32	0.24279
2324.39	0.24192
2322.46	0.24085
2320.53	0.23993
2318.60	0.23892
2316.68	0.23775
2314.75	0.23676
2312.82	0.23564
2310.89	0.23461
2308.96	0.23383
2307.03	0.23305
2305.10	0.23224
2303.17	0.23124
2301.24	0.23013
2299.31	0.22921
2297.39	0.22842
2295.46	0.22770
2293.53	0.22704
2291.60	0.22615
2289.67	0.22498
2287.74	0.22414
2285.81	0.22348
2283.88	0.22274
2281.95	0.22177
2280.02	0.22076
2278.10	0.22007
2276.17	0.21940
2274.24	0.21868
2272.31	0.21822
2270.38	0.21771
2268.45	0.21685
2266.52	0.21590
2264.59	0.21533
2262.66	0.21459
2260.74	0.21365
2258.81	0.21293
2256.88	0.21232
2254.95	0.21162
2253.02	0.21095
2251.09	0.21019
2249.16	0.20919
2247.23	0.20821
2245.30	0.20761
2243.37	0.20708
2241.45	0.20642
2239.52	0.20570
2237.59	0.20505
2235.66	0.20422
2233.73	0.20341
2231.80	0.20271
2229.87	0.20191
2227.94	0.20096
2226.01	0.20020
2224.09	0.19954
2222.16	0.19910
2220.23	0.19838
2218.30	0.19756
2216.37	0.19681
2214.44	0.19579
2212.51	0.19498
2210.58	0.19444
2208.65	0.19367
2206.72	0.19288
2204.80	0.19220
2202.87	0.19157
2200.94	0.19072
2199.01	0.19029
2197.08	0.18957
2195.15	0.18833
2193.22	0.18740
2191.29	0.18687
2189.36	0.18608
2187.43	0.18527
2185.51	0.18453
2183.58	0.18380
2181.65	0.18312
2179.72	0.18240
2177.79	0.18169
2175.86	0.18085
2173.93	0.17997
2172.00	0.17946
2170.07	0.17885
2168.15	0.17800
2166.22	0.17713
2164.29	0.17642
2162.36	0.17598
2160.43	0.17550
2158.50	0.17479
2156.57	0.17417
2154.64	0.17360
2152.71	0.17282
2150.78	0.17214
2148.86	0.17193
2146.93	0.17138
2145.00	0.17076
2143.07	0.17014
2141.14	0.16918
2139.21	0.16839
2137.28	0.16804
2135.35	0.16752
2133.42	0.16677
2131.50	0.16596
2129.57	0.16536
2127.64	0.16470
2125.71	0.16393
2123.78	0.16334
2121.85	0.16291
2119.92	0.16226
2117.99	0.16144
2116.06	0.16044
2114.14	0.15969
2112.21	0.15904
2110.28	0.15835
2108.35	0.15756
2106.42	0.15672
2104.49	0.15597
2102.56	0.15544
2100.63	0.15463
2098.70	0.15382
2096.77	0.15289
2094.84	0.15159
2092.92	0.15034
2090.99	0.14945
2089.06	0.14846
2087.13	0.14730
2085.20	0.14585
2083.27	0.14464
2081.34	0.14341
2079.41	0.14205
2077.48	0.14057
2075.56	0.13917
2073.63	0.13778
2071.70	0.13613
2069.77	0.13419
2067.84	0.13224
2065.91	0.13004
2063.98	0.12754
2062.05	0.12485
2060.12	0.12187
2058.19	0.11873
2056.27	0.11522
2054.34	0.11093
2052.41	0.10648
2050.48	0.10205
2048.55	0.09744
2046.62	0.09311
2044.69	0.08922
2042.76	0.08551
2040.83	0.08207
2038.91	0.07928
2036.98	0.07678
2035.05	0.07444
2033.12	0.07236
2031.19	0.07021
2029.26	0.06830
2027.33	0.06679
2025.40	0.06538
2023.47	0.06417
2021.55	0.06333
2019.62	0.06313
2017.69	0.06348
2015.76	0.06391
2013.83	0.06443
2011.90	0.06509
2009.97	0.06596
2008.04	0.06658
2006.11	0.06714
2004.18	0.06769
2002.26	0.06806
2000.33	0.06828
1998.40	0.06877
1996.47	0.06939
1994.54	0.07004
1992.61	0.07072
1990.68	0.07107
1988.75	0.07111
1986.82	0.07124
1984.89	0.07126
1982.97	0.07134
1981.04	0.07141
1979.11	0.07135
1977.18	0.07115
1975.25	0.07078
1973.32	0.07022
1971.39	0.06985
1969.46	0.06928
1967.53	0.06854
1965.61	0.06815
1963.68	0.06775
1961.75	0.06691
1959.82	0.06584
1957.89	0.06492
1955.96	0.06432
1954.03	0.06352
1952.10	0.06228
1950.17	0.06121
1948.24	0.06025
1946.32	0.05897
1944.39	0.05772
1942.46	0.05667
1940.53	0.05575
1938.60	0.05468
1936.67	0.05367
1934.74	0.05294
1932.81	0.05196
1930.88	0.05095
1928.96	0.05010
1927.03	0.04899
1925.10	0.04787
1923.17	0.04719
1921.24	0.04657
1919.31	0.04591
1917.38	0.04534
1915.45	0.04486
1913.52	0.04445
1911.59	0.04406
1909.67	0.04399
1907.74	0.04407
1905.81	0.04401
1903.88	0.04384
1901.95	0.04407
1900.02	0.04424
1898.09	0.04411
1896.16	0.04390
1894.23	0.04387
1892.30	0.04382
1890.38	0.04384
1888.45	0.04375
1886.52	0.04334
1884.59	0.04316
1882.66	0.04312
1880.73	0.04291
1878.80	0.04255
1876.87	0.04227
1874.94	0.04198
1873.02	0.04163
1871.09	0.04110
1869.16	0.04058
1867.23	0.03982
1865.30	0.03896
1863.37	0.03838
1861.44	0.03793
1859.51	0.03750
1857.58	0.03702
1855.65	0.03655
1853.73	0.03595
1851.80	0.03514
1849.87	0.03436
1847.94	0.03387
1846.01	0.03358
1844.08	0.03327
1842.15	0.03284
1840.22	0.03234
1838.29	0.03189
1836.37	0.03156
1834.44	0.03124
1832.51	0.03088
1830.58	0.03085
1828.65	0.03106
1826.72	0.03121
1824.79	0.03121
1822.86	0.03108
1820.93	0.03107
1819.00	0.03117
1817.08	0.03110
1815.15	0.03099
1813.22	0.03091
1811.29	0.03074
1809.36	0.03055
1807.43	0.03019
1805.50	0.02956
1803.57	0.02899
1801.64	0.02847
1799.71	0.02793
1797.79	0.02720
1795.86	0.02618
1793.93	0.02522
1792.00	0.02436
1790.07	0.02338
1788.14	0.02278
1786.21	0.02232
1784.28	0.02201
1782.35	0.02201
1780.43	0.02204
1778.50	0.02201
1776.57	0.02215
1774.64	0.02215
1772.71	0.02246
1770.78	0.02295
1768.85	0.02343
1766.92	0.02400
1764.99	0.02458
1763.06	0.02522
1761.14	0.02591
1759.21	0.02645
1757.28	0.02695
1755.35	0.02745
1753.42	0.02819
1751.49	0.02908
1749.56	0.02998
1747.63	0.03053
1745.70	0.03105
1743.77	0.03150
1741.85	0.03198
1739.92	0.03243
1737.99	0.03272
1736.06	0.03287
1734.13	0.03287
1732.20	0.03275
1730.27	0.03274
1728.34	0.03250
1726.41	0.03194
1724.49	0.03155
1722.56	0.03150
1720.63	0.03145
1718.70	0.03124
1716.77	0.03084
1714.84	0.03084
1712.91	0.03064
1710.98	0.03014
1709.05	0.03001
1707.12	0.02991
1705.20	0.02981
1703.27	0.02983
1701.34	0.02983
1699.41	0.02992
1697.48	0.03011
1695.55	0.03031
1693.62	0.03009
1691.69	0.03008
1689.76	0.03038
1687.84	0.03045
1685.91	0.03023
1683.98	0.03010
1682.05	0.02980
1680.12	0.02929
1678.19	0.02867
1676.26	0.02841
1674.33	0.02856
1672.40	0.02862
1670.47	0.02850
1668.55	0.02840
1666.62	0.02871
1664.69	0.02948
1662.76	0.03039
1660.83	0.03168
1658.90	0.03313
1656.97	0.03496
1655.04	0.03698
1653.11	0.04003
1651.19	0.04303
1649.26	0.04555
1647.33	0.04861
1645.40	0.05154
1643.47	0.05364
1641.54	0.05584
1639.61	0.05819
1637.68	0.06001
1635.75	0.06184
1633.82	0.06361
1631.90	0.06465
1629.97	0.06547
1628.04	0.06604
1626.11	0.06673
1624.18	0.06736
1622.25	0.06761
1620.32	0.06778
1618.39	0.06813
1616.46	0.06829
1614.54	0.06829
1612.61	0.06789
1610.68	0.06763
1608.75	0.06746
1606.82	0.06708
1604.89	0.06669
1602.96	0.06630
1601.03	0.06607
1599.10	0.06582
1597.17	0.06530
1595.25	0.06508
1593.32	0.06523
1591.39	0.06550
1589.46	0.06575
1587.53	0.06608
1585.60	0.06656
1583.67	0.06718
1581.74	0.06775
1579.81	0.06819
1577.88	0.06871
1575.96	0.06940
1574.03	0.06948
1572.10	0.06929
1570.17	0.06930
1568.24	0.06889
1566.31	0.06860
1564.38	0.06846
1562.45	0.06839
1560.52	0.06884
1558.60	0.06884
1556.67	0.06820
1554.74	0.06801
1552.81	0.06804
1550.88	0.06792
1548.95	0.06759
1547.02	0.06754
1545.09	0.06776
1543.16	0.06759
1541.23	0.06741
1539.31	0.06745
1537.38	0.06714
1535.45	0.06678
1533.52	0.06640
1531.59	0.06602
1529.66	0.06604
1527.73	0.06629
1525.80	0.06646
1523.87	0.06662
1521.95	0.06686
1520.02	0.06696
1518.09	0.06697
1516.16	0.06694
1514.23	0.06658
1512.30	0.06617
1510.37	0.06580
1508.44	0.06565
1506.51	0.06511
1504.58	0.06414
1502.66	0.06327
1500.73	0.06264
1498.80	0.06209
1496.87	0.06132
1494.94	0.06001
1493.01	0.05908
1491.08	0.05817
1489.15	0.05688
1487.22	0.05572
1485.29	0.05472
1483.37	0.05344
1481.44	0.05218
1479.51	0.05092
1477.58	0.04982
1475.65	0.04894
1473.72	0.04858
1471.79	0.04811
1469.86	0.04737
1467.93	0.04718
1466.01	0.04729
1464.08	0.04734
1462.15	0.04723
1460.22	0.04712
1458.29	0.04738
1456.36	0.04749
1454.43	0.04733
1452.50	0.04705
1450.57	0.04659
1448.65	0.04607
1446.72	0.04534
1444.79	0.04448
1442.86	0.04377
1440.93	0.04286
1439.00	0.04201
1437.07	0.04144
1435.14	0.04049
1433.21	0.03926
1431.28	0.03804
1429.36	0.03718
1427.43	0.03656
1425.50	0.03547
1423.57	0.03434
1421.64	0.03359
1419.71	0.03327
1417.78	0.03268
1415.85	0.03220
1413.92	0.03209
1411.99	0.03200
1410.07	0.03194
1408.14	0.03212
1406.21	0.03220
1404.28	0.03192
1402.35	0.03144
1400.42	0.03094
1398.49	0.03051
1396.56	0.03012
1394.64	0.02963
1392.71	0.02937
1390.78	0.02898
1388.85	0.02852
1386.92	0.02818
1384.99	0.02797
1383.06	0.02781
1381.13	0.02757
1379.20	0.02739
1377.27	0.02740
1375.34	0.02735
1373.42	0.02719
1371.49	0.02688
1369.56	0.02663
1367.63	0.02621
1365.70	0.02554
1363.77	0.02494
1361.84	0.02460
1359.91	0.02418
1357.98	0.02365
1356.06	0.02311
1354.13	0.02271
1352.20	0.02231
1350.27	0.02212
1348.34	0.02170
1346.41	0.02118
1344.48	0.02080
1342.55	0.02050
1340.62	0.02010
1338.69	0.01947
1336.77	0.01891
1334.84	0.01883
1332.91	0.01844
1330.98	0.01827
1329.05	0.01793
1327.12	0.01765
1325.19	0.01754
1323.26	0.01731
1321.33	0.01685
1319.40	0.01690
1317.48	0.01708
1315.55	0.01730
1313.62	0.01735
1311.69	0.01735
1309.76	0.01699
1307.83	0.01683
1305.90	0.01689
1303.97	0.01696
1302.04	0.01700
1300.12	0.01693
1298.19	0.01672
1296.26	0.01640
1294.33	0.01625
1292.40	0.01632
1290.47	0.01636
1288.54	0.01616
1286.61	0.01588
1284.68	0.01587
1282.75	0.01567
1280.83	0.01556
1278.90	0.01550
1276.97	0.01525
1275.04	0.01483
1273.11	0.01487
1271.18	0.01465
1269.25	0.01452
1267.32	0.01469
1265.40	0.01489
1263.47	0.01474
1261.54	0.01441
1259.61	0.01413
1257.68	0.01400
1255.75	0.01375
1253.82	0.01365
1251.89	0.01365
1249.96	0.01351
1248.03	0.01286
1246.10	0.01254
1244.18	0.01230
1242.25	0.01181
1240.32	0.01152
1238.39	0.01159
1236.46	0.01133
1234.53	0.01099
1232.60	0.01102
1230.67	0.01077
1228.74	0.01048
1226.82	0.01042
1224.89	0.00996
1222.96	0.00918
1221.03	0.00893
1219.10	0.00934
1217.17	0.00943
1215.24	0.00903
1213.31	0.00856
1211.38	0.00855
1209.45	0.00832
1207.53	0.00827
1205.60	0.00796
1203.67	0.00752
1201.74	0.00746
1199.81	0.00772
1197.88	0.00711
1195.95	0.00677
1194.02	0.00683
1192.09	0.00694
1190.16	0.00672
1188.24	0.00617
1186.31	0.00598
1184.38	0.00604
1182.45	0.00605
1180.52	0.00595
1178.59	0.00613
1176.66	0.00612
1174.73	0.00583
1172.81	0.00574
1170.88	0.00521
1168.95	0.00468
1167.02	0.00462
1165.09	0.00468
1163.16	0.00458
1161.23	0.00462
1159.30	0.00430
1157.37	0.00411
1155.44	0.00373
1153.51	0.00381
1151.59	0.00407
1149.66	0.00414
1147.73	0.00367
1145.80	0.00347
1143.87	0.00363
1141.94	0.00340
1140.01	0.00299
1138.08	0.00296
1136.15	0.00272
1134.23	0.00237
1132.30	0.00271
1130.37	0.00289
1128.44	0.00258
1126.51	0.00257
1124.58	0.00230
1122.65	0.00215
1120.72	0.00208
1118.79	0.00195
1116.86	0.00243
1114.94	0.00296
1113.01	0.00294
1111.08	0.00287
1109.15	0.00293
1107.22	0.00337
1105.29	0.00356
1103.36	0.00422
1101.43	0.00481
1099.50	0.00573
1097.57	0.00671
1095.65	0.00744
1093.72	0.00857
1091.79	0.01011
1089.86	0.01203
1087.93	0.01473
1086.00	0.01804
1084.07	0.02166
1082.14	0.02570
1080.21	0.03120
1078.29	0.03843
1076.36	0.04742
1074.43	0.05840
1072.50	0.07086
1070.57	0.08349
1068.64	0.09405
1066.71	0.10112
1064.78	0.10569
1062.85	0.10881
1060.93	0.11057
1059.00	0.11150
1057.07	0.11232
1055.14	0.11340
1053.21	0.11418
1051.28	0.11475
1049.35	0.11504
1047.42	0.11456
1045.49	0.11368
1043.56	0.11258
1041.64	0.11193
1039.71	0.11151
1037.78	0.11092
1035.85	0.10977
1033.92	0.10849
1031.99	0.10688
1030.06	0.10502
1028.13	0.10358
1026.20	0.10197
1024.27	0.10042
1022.35	0.09883
1020.42	0.09687
1018.49	0.09474
1016.56	0.09273
1014.63	0.09045
1012.70	0.08799
1010.77	0.08584
1008.84	0.08366
1006.91	0.08173
1004.99	0.08019
1003.06	0.07892
1001.13	0.07817
999.20	0.07863
997.27	0.08029
995.34	0.08369
993.41	0.08884
991.48	0.09682
989.55	0.10853
987.63	0.12248
985.70	0.13538
983.77	0.14328
981.84	0.14502
979.91	0.14236
977.98	0.13776
976.05	0.13213
974.12	0.12743
972.19	0.12416
970.26	0.12170
968.34	0.11981
966.41	0.11862
964.48	0.11847
962.55	0.11893
960.62	0.12234
958.69	0.13460
956.76	0.15787
954.83	0.18424
952.90	0.20516
950.97	0.21894
949.05	0.22663
947.12	0.23010
945.19	0.23137
943.26	0.23085
941.33	0.22905
939.40	0.22731
937.47	0.22558
935.54	0.22297
933.61	0.21935
931.68	0.21596
929.76	0.21211
927.83	0.20853
925.90	0.20493
923.97	0.20118
922.04	0.19752
920.11	0.19358
918.18	0.18952
916.25	0.18597
914.32	0.18263
912.40	0.17940
910.47	0.17568
908.54	0.17276
906.61	0.17027
904.68	0.16725
902.75	0.16413
900.82	0.16149
898.89	0.15949
896.96	0.15707
895.04	0.15455
893.11	0.15191
891.18	0.14848
889.25	0.14549
887.32	0.14301
885.39	0.13971
883.46	0.13647
881.53	0.13317
879.60	0.12889
877.67	0.12336
875.75	0.11736
873.82	0.11087
871.89	0.10268
869.96	0.09364
868.03	0.08491
866.10	0.07727
864.17	0.07106
862.24	0.06605
860.31	0.06169
858.38	0.05788
856.46	0.05524
854.53	0.05257
852.60	0.04961
850.67	0.04662
848.74	0.04448
846.81	0.04274
844.88	0.04230
842.95	0.04371
841.02	0.04600
839.10	0.04829
837.17	0.04883
835.24	0.04740
833.31	0.04579
831.38	0.04390
829.45	0.04196
827.52	0.03997
825.59	0.03858
823.66	0.03771
821.73	0.03679
819.81	0.03547
817.88	0.03397
815.95	0.03255
814.02	0.03169
812.09	0.03104
810.16	0.03039
808.23	0.02937
806.30	0.02866
804.37	0.02804
802.45	0.02746
800.52	0.02680
798.59	0.02634
796.66	0.02583
794.73	0.02500
792.80	0.02434
790.87	0.02375
788.94	0.02316
787.01	0.02300
785.08	0.02250
783.16	0.02195
781.23	0.02155
779.30	0.02119
777.37	0.02071
775.44	0.02011
773.51	0.01928
771.58	0.01891
769.65	0.01837
767.72	0.01822
765.79	0.01822
763.87	0.01790
761.94	0.01759
760.01	0.01728
758.08	0.01699
756.15	0.01672
754.22	0.01644
752.29	0.01619
750.36	0.01593
748.43	0.01567
746.51	0.01540
744.58	0.01514
742.65	0.01487
740.72	0.01463
738.79	0.01438
736.86	0.01412
734.93	0.01385
733.00	0.01358
731.07	0.01332
729.14	0.01305
727.22	0.01279
725.29	0.01252
723.36	0.01225
721.43	0.01198
719.50	0.01171
717.57	0.01144
715.64	0.01118
713.71	0.01093
711.78	0.01068
709.86	0.01043
707.93	0.01017
706.00	0.00992
704.07	0.00967
702.14	0.00944
700.21	0.00920
698.28	0.00895
696.35	0.00873
694.42	0.00853
692.49	0.00831
690.57	0.00808
688.64	0.00787
686.71	0.00767
684.78	0.00754
682.85	0.00743
680.92	0.00721
678.99	0.00698
677.06	0.00681
675.13	0.00663
673.21	0.00653
671.28	0.00654
669.35	0.00658
667.42	0.00658
665.49	0.00663
663.56	0.00691
661.63	0.00733
659.70	0.00789
657.77	0.00869
655.84	0.00975
653.92	0.01106
651.99	0.01262
650.06	0.01443
648.13	0.01648
646.20	0.01868
644.27	0.02109
642.34	0.02346
640.41	0.02566
638.48	0.02763
636.55	0.02933
634.63	0.03065
632.70	0.03162
630.77	0.03233
628.84	0.03299
626.91	0.03362
624.98	0.03401
623.05	0.03404
621.12	0.03371
619.19	0.03302
617.27	0.03217
615.34	0.03118
613.41	0.02999
611.48	0.02879
609.55	0.02756
607.62	0.02616
605.69	0.02477
603.76	0.02341
601.83	0.02195
599.90	0.02046
597.98	0.01910
596.05	0.01783
594.12	0.01672
592.19	0.01600
590.26	0.01572
588.33	0.01587
586.40	0.01652
584.47	0.01764
582.54	0.01929
580.62	0.02152
578.69	0.02423
576.76	0.02739
574.83	0.03100
572.90	0.03506
570.97	0.03947
569.04	0.04405
567.11	0.04871
565.18	0.05312
563.25	0.05692
561.33	0.06009
559.40	0.06284
557.47	0.06515
555.54	0.06726
553.61	0.06954
551.68	0.07234
549.75	0.07536
547.82	0.07783
545.89	0.07902
543.96	0.07898
542.04	0.07839
540.11	0.07802
538.18	0.07855
536.25	0.08054
534.32	0.08431
532.39	0.08928
530.46	0.09401
528.53	0.09718
526.60	0.09793
524.68	0.09641
522.75	0.09365
520.82	0.09046
518.89	0.08719
516.96	0.08400
515.03	0.08087
513.10	0.07776
511.17	0.07488
509.24	0.07286
507.32	0.07212
505.39	0.07236
503.46	0.07208
501.53	0.06993
499.60	0.06566
497.67	0.06016
495.74	0.05428
493.81	0.04854
491.88	0.04314
489.95	0.03819
488.03	0.03385
486.10	0.03028
484.17	0.02787
482.24	0.02710
480.31	0.02821
478.38	0.03080
476.45	0.03407
474.52	0.03717
472.59	0.03992
470.66	0.04203
468.74	0.04308
466.81	0.04277
464.88	0.04135
462.95	0.03937
461.02	0.03766
459.09	0.03715
457.16	0.03871
455.23	0.04252
453.30	0.04810
451.38	0.05496
449.45	0.06262
447.52	0.07005
445.59	0.07592
443.66	0.07967
441.73	0.08187
439.80	0.08351
437.87	0.08556
435.94	0.08935
434.01	0.09562
432.09	0.10351
430.16	0.11145
428.23	0.11823
426.30	0.12342
424.37	0.12706
422.44	0.12947
420.51	0.13087
418.58	0.13150
416.65	0.13107
414.73	0.12875
412.80	0.12389
410.87	0.11665
408.94	0.10809
407.01	0.09987
405.08	0.09332
403.15	0.08884
401.22	0.08631
399.29	0.08515
397.36	0.08403
395.44	0.08162
393.51	0.07778
391.58	0.07284
389.65	0.06743
387.72	0.06203
385.79	0.05750
383.86	0.05457
381.93	0.05383
380.00	0.05460
378.07	0.05568
376.15	0.05587
374.22	0.05563
372.29	0.05592
370.36	0.05738
368.43	0.06003
366.50	0.06305
364.57	0.06567
362.64	0.06761
360.71	0.06877
358.79	0.06925
356.86	0.06909
354.93	0.06833
353.00	0.06704
351.07	0.06544
349.14	0.06359
347.21	0.06167
345.28	0.05970
343.35	0.05781
341.42	0.05587
339.50	0.05402
337.57	0.05208
335.64	0.05016
333.71	0.04820
331.78	0.04639
329.85	0.04452
327.92	0.04265
325.99	0.04082
324.06	0.03914
322.14	0.03747
320.21	0.03600
318.28	0.03465
316.35	0.03363
314.42	0.03305
312.49	0.03287
310.56	0.03317
308.63	0.03442
306.70	0.03689
304.77	0.04061
302.85	0.04606
300.92	0.05183
298.99	0.05629
297.06	0.05986
295.13	0.06252
293.20	0.06450
291.27	0.06570
289.34	0.06612
287.41	0.06562
285.49	0.06425
283.56	0.06235
281.63	0.06033
279.70	0.05850
277.77	0.05682
275.84	0.05552
273.91	0.05460
271.98	0.05376
270.05	0.05297
268.12	0.05217
266.20	0.05110
264.27	0.05002
262.34	0.04902
260.41	0.04817
258.48	0.04735
256.55	0.04668
254.62	0.04591
252.69	0.04520
250.76	0.04458
248.83	0.04401
246.91	0.04337
244.98	0.04274
243.05	0.04222
241.12	0.04172
239.19	0.04120
237.26	0.04070
235.33	0.04034
233.40	0.03991
231.47	0.03950
229.55	0.03907
227.62	0.03859
225.69	0.03814
223.76	0.03785
221.83	0.03745
219.90	0.03711
217.97	0.03678
216.04	0.03638
214.11	0.03600
212.18	0.03568
210.26	0.03554
208.33	0.03522
206.40	0.03484
204.47	0.03457
202.54	0.03406
200.61	0.03357
198.68	0.03336
196.75	0.03317
194.82	0.03297
192.90	0.03282
190.97	0.03274
189.04	0.03261
187.11	0.03246
185.18	0.03231
183.25	0.03190
181.32	0.03154
179.39	0.03129
177.46	0.03115
175.53	0.03095
173.61	0.03067
171.68	0.03046
169.75	0.03023
167.82	0.02995
165.89	0.02985
163.96	0.02950
162.03	0.02934
160.10	0.02950
158.17	0.02943
156.24	0.02902
154.32	0.02876
152.39	0.02879
150.46	0.02893
148.53	0.02856
146.60	0.02879
144.67	0.02925
142.74	0.02902
140.81	0.02894
138.89	0.02900
136.96	0.02894
135.03	0.02981
133.10	0.03064
131.17	0.03051
129.24	0.03073
127.31	0.03166
125.38	0.03176
123.45	0.03146
121.52	0.03239
119.59	0.03377
117.67	0.03403
115.74	0.03441
113.81	0.03527
111.88	0.03524
109.95	0.03533
108.02	0.03615
106.09	0.03602
104.16	0.03587
102.23	0.03627
100.31	0.03671
98.38	0.03665
96.45	0.03684
94.52	0.03841
92.59	0.03920
90.66	0.03814
88.73	0.03859
86.80	0.03877
84.87	0.03808
82.94	0.03934
81.02	0.03905
79.09	0.03764
77.16	0.03813
75.23	0.03662
73.30	0.03454
	
	
	
	
	
	
	
	
	
	
	
	
	
	
